'Id: "" Comment: "" Operator: "Lab Manager" Anode: "Cu" Scantype: "Coupled TwoTheta/Theta" TimePerStep: "113.4653" X: "9999" Y: "9999" Z: "-2.700037" 
20.0000 6.937
20.0200 6.873
20.0400 6.706
20.0600 6.830
20.0800 7.172
20.1000 7.083
20.1200 7.272
20.1400 7.346
20.1600 7.546
20.1800 7.300
20.2000 7.501
20.2200 7.382
20.2400 7.480
20.2600 7.245
20.2800 7.092
20.3000 6.922
20.3200 6.865
20.3400 7.065
20.3600 7.720
20.3800 7.467
20.4000 7.205
20.4200 7.251
20.4400 7.285
20.4600 7.630
20.4800 7.139
20.5000 7.390
20.5200 7.465
20.5400 7.502
20.5600 7.469
20.5800 7.792
20.6000 7.814
20.6200 7.256
20.6400 7.406
20.6600 7.296
20.6800 7.640
20.7000 7.523
20.7200 7.973
20.7400 7.375
20.7600 7.888
20.7800 7.758
20.8000 7.599
20.8200 7.861
20.8400 8.536
20.8600 7.814
20.8800 7.805
20.9000 7.937
20.9200 8.074
20.9400 7.755
20.9600 7.803
20.9800 7.721
21.0000 7.880
21.0200 7.879
21.0400 8.038
21.0600 7.383
21.0800 7.688
21.1000 8.492
21.1200 8.295
21.1400 7.998
21.1600 8.071
21.1800 7.956
21.2000 8.330
21.2200 7.924
21.2400 7.873
21.2600 8.626
21.2800 8.173
21.3000 8.248
21.3200 8.452
21.3400 8.722
21.3600 8.706
21.3800 8.293
21.4000 8.224
21.4200 8.479
21.4400 8.229
21.4600 8.236
21.4800 8.719
21.5000 8.337
21.5200 8.408
21.5400 8.153
21.5600 8.003
21.5800 8.336
21.6000 8.370
21.6200 8.693
21.6400 8.642
21.6600 8.901
21.6800 8.716
21.7000 8.599
21.7200 8.681
21.7400 8.871
21.7600 8.992
21.7800 8.882
21.8000 8.431
21.8200 8.554
21.8400 8.839
21.8600 8.933
21.8800 9.055
21.9000 8.863
21.9200 9.084
21.9400 8.762
21.9600 9.211
21.9800 8.955
22.0000 8.927
22.0200 9.184
22.0400 8.788
22.0600 9.188
22.0800 8.940
22.1000 8.881
22.1200 8.897
22.1400 8.702
22.1600 8.850
22.1800 9.027
22.2000 9.113
22.2200 9.051
22.2400 9.011
22.2600 8.668
22.2800 9.285
22.3000 9.427
22.3200 9.369
22.3400 9.028
22.3600 9.345
22.3800 9.361
22.4000 9.586
22.4200 10.148
22.4400 9.430
22.4600 9.455
22.4800 9.099
22.5000 9.191
22.5200 9.282
22.5400 9.847
22.5600 9.169
22.5800 9.804
22.6000 9.414
22.6200 9.129
22.6400 9.466
22.6600 9.578
22.6800 10.087
22.7000 9.467
22.7200 9.872
22.7400 9.167
22.7600 9.540
22.7800 9.811
22.8000 9.363
22.8200 9.628
22.8400 9.732
22.8600 9.718
22.8800 9.345
22.9000 9.497
22.9200 9.594
22.9400 9.580
22.9600 9.746
22.9800 9.688
23.0000 9.806
23.0200 9.905
23.0400 9.972
23.0600 9.972
23.0800 9.919
23.1000 9.787
23.1200 10.607
23.1400 10.301
23.1600 10.463
23.1800 10.226
23.2000 9.896
23.2200 10.647
23.2400 10.010
23.2600 9.911
23.2800 9.747
23.3000 10.035
23.3200 9.943
23.3400 10.241
23.3600 10.289
23.3800 9.729
23.4000 9.865
23.4200 10.109
23.4400 10.189
23.4600 9.857
23.4800 9.743
23.5000 10.108
23.5200 10.500
23.5400 10.557
23.5600 10.239
23.5800 10.429
23.6000 10.445
23.6200 10.267
23.6400 10.114
23.6600 10.350
23.6800 10.480
23.7000 10.584
23.7200 10.607
23.7400 10.573
23.7600 10.373
23.7800 10.909
23.8000 10.908
23.8200 10.920
23.8400 10.783
23.8600 10.350
23.8800 9.949
23.9000 10.853
23.9200 11.179
23.9400 11.102
23.9600 10.235
23.9800 10.730
24.0000 10.301
24.0200 10.167
24.0400 10.832
24.0600 10.548
24.0800 10.300
24.1000 10.593
24.1200 10.220
24.1400 10.495
24.1600 10.811
24.1800 10.728
24.2000 10.408
24.2200 10.793
24.2400 10.892
24.2600 11.037
24.2800 10.674
24.3000 10.553
24.3200 11.220
24.3400 11.291
24.3600 10.634
24.3800 11.218
24.4000 10.988
24.4200 11.080
24.4400 10.546
24.4600 11.173
24.4800 10.851
24.5000 10.398
24.5200 10.655
24.5400 11.188
24.5600 11.257
24.5800 10.908
24.6000 11.086
24.6200 11.048
24.6400 11.227
24.6600 11.367
24.6800 11.166
24.7000 11.114
24.7200 11.196
24.7400 11.142
24.7600 11.165
24.7800 10.833
24.8000 11.613
24.8200 10.940
24.8400 11.494
24.8600 11.035
24.8800 10.793
24.9000 11.589
24.9200 11.284
24.9400 11.380
24.9600 11.237
24.9800 11.218
25.0000 11.261
25.0200 11.303
25.0400 11.091
25.0600 11.667
25.0800 12.009
25.1000 11.388
25.1200 11.292
25.1400 11.019
25.1600 11.321
25.1800 11.665
25.2000 11.466
25.2200 11.694
25.2400 11.882
25.2600 11.287
25.2800 11.758
25.3000 11.254
25.3200 11.305
25.3400 11.606
25.3600 11.785
25.3800 12.180
25.4000 11.956
25.4200 11.829
25.4400 11.962
25.4600 11.660
25.4800 11.733
25.5000 11.576
25.5200 12.089
25.5400 11.996
25.5600 11.533
25.5800 11.699
25.6000 11.758
25.6200 12.023
25.6400 11.575
25.6600 11.565
25.6800 11.497
25.7000 11.487
25.7200 12.059
25.7400 12.075
25.7600 12.199
25.7800 11.656
25.8000 12.027
25.8200 11.909
25.8400 12.115
25.8600 12.000
25.8800 12.039
25.9000 12.580
25.9200 12.304
25.9400 11.673
25.9600 11.902
25.9800 11.529
26.0000 12.173
26.0200 12.499
26.0400 12.134
26.0600 12.339
26.0800 12.308
26.1000 12.020
26.1200 12.199
26.1400 11.664
26.1600 12.303
26.1800 12.486
26.2000 12.324
26.2200 12.377
26.2400 12.583
26.2600 12.205
26.2800 11.799
26.3000 12.186
26.3200 12.065
26.3400 12.696
26.3600 12.549
26.3800 12.826
26.4000 12.793
26.4200 12.353
26.4400 12.420
26.4600 12.455
26.4800 12.975
26.5000 12.577
26.5200 12.617
26.5400 12.667
26.5600 12.563
26.5800 12.672
26.6000 12.426
26.6200 12.719
26.6400 12.977
26.6600 13.362
26.6800 12.647
26.7000 12.687
26.7200 13.040
26.7400 13.146
26.7600 13.040
26.7800 12.730
26.8000 13.216
26.8200 12.761
26.8400 12.990
26.8600 12.687
26.8800 13.389
26.9000 13.059
26.9200 12.766
26.9400 12.951
26.9600 13.146
26.9800 12.854
27.0000 12.828
27.0200 12.966
27.0400 12.812
27.0600 13.127
27.0800 13.279
27.1000 13.510
27.1200 13.437
27.1400 12.795
27.1600 13.291
27.1800 12.990
27.2000 13.072
27.2200 12.616
27.2400 13.394
27.2600 13.271
27.2800 13.563
27.3000 13.290
27.3200 13.302
27.3400 13.266
27.3600 13.275
27.3800 13.937
27.4000 13.299
27.4200 13.547
27.4400 13.618
27.4600 14.150
27.4800 12.973
27.5000 13.340
27.5200 13.151
27.5400 13.289
27.5600 13.946
27.5800 14.054
27.6000 13.393
27.6200 13.334
27.6400 13.232
27.6600 13.065
27.6800 13.248
27.7000 13.982
27.7200 13.743
27.7400 13.614
27.7600 13.972
27.7800 13.223
27.8000 13.862
27.8200 13.792
27.8400 13.641
27.8600 13.228
27.8800 13.051
27.9000 13.822
27.9200 13.459
27.9400 13.391
27.9600 13.498
27.9800 13.744
28.0000 13.708
28.0200 13.992
28.0400 14.009
28.0600 13.762
28.0800 13.880
28.1000 13.925
28.1200 13.818
28.1400 14.380
28.1600 13.960
28.1800 13.785
28.2000 13.657
28.2200 13.879
28.2400 14.274
28.2600 13.819
28.2800 13.797
28.3000 14.067
28.3200 14.108
28.3400 13.764
28.3600 14.144
28.3800 14.232
28.4000 14.402
28.4200 13.990
28.4400 14.082
28.4600 14.637
28.4800 14.555
28.5000 13.928
28.5200 14.217
28.5400 14.095
28.5600 14.406
28.5800 14.330
28.6000 13.646
28.6200 14.606
28.6400 14.698
28.6600 13.922
28.6800 14.472
28.7000 13.994
28.7200 14.701
28.7400 14.325
28.7600 14.318
28.7800 14.637
28.8000 14.677
28.8200 13.808
28.8400 14.340
28.8600 14.783
28.8800 14.687
28.9000 14.319
28.9200 14.575
28.9400 14.828
28.9600 14.599
28.9800 14.020
29.0000 14.675
29.0200 14.825
29.0400 14.292
29.0600 14.521
29.0800 14.224
29.1000 15.092
29.1200 14.736
29.1400 14.906
29.1600 15.319
29.1800 14.400
29.2000 14.951
29.2200 14.485
29.2400 15.429
29.2600 15.088
29.2800 14.976
29.3000 15.430
29.3200 15.231
29.3400 15.469
29.3600 15.354
29.3800 14.904
29.4000 15.309
29.4200 15.441
29.4400 15.076
29.4600 15.439
29.4800 15.555
29.5000 15.458
29.5200 15.565
29.5400 14.998
29.5600 15.556
29.5800 15.651
29.6000 15.929
29.6200 16.212
29.6400 16.541
29.6600 15.839
29.6800 16.885
29.7000 16.176
29.7200 16.028
29.7400 15.929
29.7600 15.781
29.7800 16.291
29.8000 16.670
29.8200 16.411
29.8400 15.447
29.8600 15.460
29.8800 15.345
29.9000 15.547
29.9200 15.882
29.9400 15.608
29.9600 15.630
29.9800 15.383
30.0000 14.892
30.0200 15.308
30.0400 16.540
30.0600 16.072
30.0800 16.085
30.1000 15.566
30.1200 15.373
30.1400 15.991
30.1600 15.390
30.1800 15.800
30.2000 16.289
30.2200 15.411
30.2400 15.529
30.2600 15.957
30.2800 15.670
30.3000 16.241
30.3200 15.524
30.3400 15.343
30.3600 15.435
30.3800 16.227
30.4000 15.820
30.4200 16.170
30.4400 16.407
30.4600 16.042
30.4800 15.305
30.5000 16.304
30.5200 15.795
30.5400 15.769
30.5600 15.992
30.5800 16.504
30.6000 16.017
30.6200 16.053
30.6400 15.833
30.6600 15.808
30.6800 16.725
30.7000 16.185
30.7200 16.431
30.7400 16.026
30.7600 16.410
30.7800 16.379
30.8000 16.659
30.8200 16.640
30.8400 16.572
30.8600 16.392
30.8800 16.596
30.9000 16.448
30.9200 16.592
30.9400 16.181
30.9600 16.408
30.9800 16.641
31.0000 16.003
31.0200 15.996
31.0400 16.343
31.0600 16.488
31.0800 16.710
31.1000 16.658
31.1200 16.221
31.1400 16.924
31.1600 16.941
31.1800 16.758
31.2000 17.255
31.2200 16.651
31.2400 16.311
31.2600 16.837
31.2800 17.378
31.3000 17.063
31.3200 16.952
31.3400 16.787
31.3600 16.393
31.3800 17.207
31.4000 17.092
31.4200 16.779
31.4400 17.279
31.4600 17.265
31.4800 17.391
31.5000 17.002
31.5200 17.610
31.5400 17.477
31.5600 16.871
31.5800 17.140
31.6000 17.633
31.6200 16.954
31.6400 17.542
31.6600 17.458
31.6800 16.785
31.7000 16.850
31.7200 16.882
31.7400 16.790
31.7600 17.184
31.7800 17.975
31.8000 17.584
31.8200 17.279
31.8400 17.133
31.8600 17.365
31.8800 16.818
31.9000 17.215
31.9200 17.814
31.9400 17.061
31.9600 17.754
31.9800 17.622
32.0000 17.602
32.0200 17.902
32.0400 17.624
32.0600 17.662
32.0800 17.582
32.1000 17.325
32.1200 17.198
32.1400 17.323
32.1600 17.428
32.1800 17.890
32.2000 17.479
32.2200 17.636
32.2400 17.876
32.2600 17.516
32.2800 17.967
32.3000 16.841
32.3200 17.784
32.3400 18.031
32.3600 18.369
32.3800 17.801
32.4000 17.803
32.4200 18.002
32.4400 18.740
32.4600 18.089
32.4800 17.279
32.5000 17.821
32.5200 18.265
32.5400 18.233
32.5600 17.932
32.5800 18.319
32.6000 17.810
32.6200 17.896
32.6400 17.489
32.6600 18.009
32.6800 18.241
32.7000 18.337
32.7200 18.619
32.7400 17.905
32.7600 18.214
32.7800 18.308
32.8000 18.659
32.8200 18.868
32.8400 18.064
32.8600 18.319
32.8800 18.747
32.9000 18.659
32.9200 18.259
32.9400 17.691
32.9600 19.092
32.9800 19.306
33.0000 18.627
33.0200 18.804
33.0400 18.376
33.0600 18.572
33.0800 18.807
33.1000 18.934
33.1200 19.109
33.1400 18.621
33.1600 17.888
33.1800 18.885
33.2000 17.834
33.2200 18.996
33.2400 18.685
33.2600 18.444
33.2800 18.823
33.3000 18.548
33.3200 18.896
33.3400 18.881
33.3600 18.922
33.3800 19.042
33.4000 19.013
33.4200 19.210
33.4400 18.651
33.4600 18.663
33.4800 19.446
33.5000 19.280
33.5200 18.918
33.5400 19.248
33.5600 19.158
33.5800 19.088
33.6000 19.260
33.6200 19.201
33.6400 18.755
33.6600 18.423
33.6800 19.210
33.7000 19.419
33.7200 19.998
33.7400 19.961
33.7600 18.924
33.7800 19.041
33.8000 18.836
33.8200 19.192
33.8400 20.191
33.8600 19.959
33.8800 19.624
33.9000 19.506
33.9200 19.036
33.9400 19.629
33.9600 18.953
33.9800 19.725
34.0000 18.990
34.0200 19.790
34.0400 19.719
34.0600 20.371
34.0800 19.707
34.1000 20.166
34.1200 20.769
34.1400 20.290
34.1600 19.942
34.1800 19.859
34.2000 20.052
34.2200 19.930
34.2400 20.182
34.2600 19.534
34.2800 20.098
34.3000 20.464
34.3200 19.731
34.3400 19.790
34.3600 19.423
34.3800 20.310
34.4000 20.058
34.4200 19.594
34.4400 19.706
34.4600 19.938
34.4800 20.157
34.5000 20.403
34.5200 20.635
34.5400 20.366
34.5600 20.039
34.5800 20.933
34.6000 20.624
34.6200 20.138
34.6400 20.240
34.6600 20.464
34.6800 20.476
34.7000 21.335
34.7200 21.482
34.7400 20.601
34.7600 20.635
34.7800 21.226
34.8000 21.255
34.8200 21.396
34.8400 20.790
34.8600 21.257
34.8800 20.851
34.9000 21.812
34.9200 22.473
34.9400 23.301
34.9600 23.448
34.9800 22.854
35.0000 23.865
35.0200 22.888
35.0400 22.486
35.0600 23.073
35.0800 22.758
35.1000 22.398
35.1200 22.142
35.1400 21.399
35.1600 21.156
35.1800 21.983
35.2000 21.371
35.2200 21.441
35.2400 21.362
35.2600 21.066
35.2800 21.975
35.3000 21.389
35.3200 21.444
35.3400 21.609
35.3600 21.274
35.3800 21.404
35.4000 21.861
35.4200 20.836
35.4400 20.900
35.4600 21.873
35.4800 21.295
35.5000 21.628
35.5200 20.903
35.5400 21.225
35.5600 21.390
35.5800 21.951
35.6000 21.717
35.6200 21.346
35.6400 21.516
35.6600 21.012
35.6800 21.162
35.7000 21.526
35.7200 21.309
35.7400 21.065
35.7600 21.362
35.7800 21.623
35.8000 21.616
35.8200 21.365
35.8400 21.593
35.8600 21.794
35.8800 21.252
35.9000 21.421
35.9200 21.498
35.9400 21.762
35.9600 21.508
35.9800 21.817
36.0000 21.485
36.0200 21.851
36.0400 22.159
36.0600 21.201
36.0800 21.451
36.1000 21.509
36.1200 22.057
36.1400 21.670
36.1600 21.497
36.1800 22.017
36.2000 21.462
36.2200 21.845
36.2400 22.040
36.2600 22.396
36.2800 22.475
36.3000 21.452
36.3200 22.762
36.3400 22.318
36.3600 21.883
36.3800 22.224
36.4000 22.446
36.4200 22.141
36.4400 22.122
36.4600 22.354
36.4800 22.736
36.5000 23.210
36.5200 22.211
36.5400 23.330
36.5600 22.963
36.5800 22.685
36.6000 22.721
36.6200 22.520
36.6400 23.005
36.6600 22.996
36.6800 22.410
36.7000 22.884
36.7200 22.347
36.7400 22.852
36.7600 23.164
36.7800 23.440
36.8000 22.908
36.8200 22.435
36.8400 22.030
36.8600 22.616
36.8800 22.760
36.9000 22.868
36.9200 22.501
36.9400 23.519
36.9600 23.529
36.9800 22.631
37.0000 23.117
37.0200 23.303
37.0400 23.524
37.0600 23.242
37.0800 23.570
37.1000 23.368
37.1200 24.020
37.1400 24.130
37.1600 23.740
37.1800 23.050
37.2000 23.417
37.2200 24.257
37.2400 24.051
37.2600 23.826
37.2800 24.296
37.3000 23.952
37.3200 24.213
37.3400 24.188
37.3600 23.921
37.3800 23.613
37.4000 24.333
37.4200 24.188
37.4400 24.369
37.4600 24.659
37.4800 24.184
37.5000 24.253
37.5200 24.241
37.5400 24.358
37.5600 24.027
37.5800 24.038
37.6000 24.342
37.6200 25.146
37.6400 24.367
37.6600 24.783
37.6800 25.056
37.7000 23.916
37.7200 24.641
37.7400 24.177
37.7600 24.121
37.7800 24.510
37.8000 24.268
37.8200 23.937
37.8400 24.352
37.8600 24.264
37.8800 24.793
37.9000 24.525
37.9200 24.733
37.9400 24.883
37.9600 24.600
37.9800 25.252
38.0000 24.950
38.0200 25.889
38.0400 26.092
38.0600 25.636
38.0800 25.343
38.1000 25.204
38.1200 24.985
38.1400 26.269
38.1600 25.657
38.1800 24.776
38.2000 25.098
38.2200 24.886
38.2400 25.654
38.2600 25.616
38.2800 25.749
38.3000 26.241
38.3200 25.650
38.3400 25.221
38.3600 25.750
38.3800 26.189
38.4000 25.938
38.4200 25.908
38.4400 25.619
38.4600 25.229
38.4800 25.489
38.5000 25.638
38.5200 25.407
38.5400 25.690
38.5600 25.773
38.5800 25.442
38.6000 25.338
38.6200 25.666
38.6400 25.291
38.6600 26.128
38.6800 26.623
38.7000 26.572
38.7200 25.635
38.7400 25.806
38.7600 26.144
38.7800 26.241
38.8000 26.217
38.8200 26.652
38.8400 25.945
38.8600 25.661
38.8800 26.523
38.9000 26.294
38.9200 26.046
38.9400 26.838
38.9600 27.334
38.9800 26.718
39.0000 25.974
39.0200 26.286
39.0400 26.873
39.0600 26.159
39.0800 26.194
39.1000 26.732
39.1200 26.776
39.1400 26.245
39.1600 26.467
39.1800 26.569
39.2000 27.048
39.2200 26.944
39.2400 26.688
39.2600 26.495
39.2800 26.480
39.3000 26.190
39.3200 26.669
39.3400 26.950
39.3600 27.011
39.3800 28.044
39.4000 27.584
39.4200 26.821
39.4400 27.631
39.4600 26.595
39.4800 26.975
39.5000 27.536
39.5200 27.145
39.5400 27.482
39.5600 27.023
39.5800 27.069
39.6000 27.573
39.6200 27.111
39.6400 27.543
39.6600 27.984
39.6800 27.105
39.7000 27.259
39.7200 27.598
39.7400 27.486
39.7600 26.708
39.7800 26.618
39.8000 27.602
39.8200 27.923
39.8400 28.042
39.8600 27.367
39.8800 27.167
39.9000 27.290
39.9200 27.477
39.9400 27.530
39.9600 27.948
39.9800 27.187
40.0000 27.370
40.0200 27.494
40.0400 27.942
40.0600 26.992
40.0800 27.943
40.1000 28.931
40.1200 27.440
40.1400 27.374
40.1600 26.993
40.1800 27.463
40.2000 27.718
40.2200 27.693
40.2400 28.387
40.2600 28.244
40.2800 28.455
40.3000 27.070
40.3200 26.736
40.3400 27.878
40.3600 27.476
40.3800 27.555
40.4000 27.848
40.4200 27.467
40.4400 27.339
40.4600 27.974
40.4800 27.751
40.5000 27.945
40.5200 28.367
40.5400 28.639
40.5600 28.394
40.5800 28.923
40.6000 28.019
40.6200 27.767
40.6400 28.099
40.6600 28.173
40.6800 29.024
40.7000 29.140
40.7200 28.190
40.7400 28.332
40.7600 28.846
40.7800 28.492
40.8000 28.717
40.8200 28.866
40.8400 28.089
40.8600 28.720
40.8800 28.691
40.9000 28.712
40.9200 28.653
40.9400 28.819
40.9600 28.630
40.9800 27.489
41.0000 28.721
41.0200 29.269
41.0400 29.201
41.0600 28.989
41.0800 28.181
41.1000 28.783
41.1200 28.693
41.1400 28.927
41.1600 28.391
41.1800 29.056
41.2000 27.713
41.2200 28.563
41.2400 28.860
41.2600 28.693
41.2800 28.991
41.3000 28.279
41.3200 28.150
41.3400 28.913
41.3600 28.984
41.3800 28.706
41.4000 28.550
41.4200 29.139
41.4400 29.291
41.4600 29.208
41.4800 28.645
41.5000 29.201
41.5200 29.206
41.5400 28.241
41.5600 28.939
41.5800 28.773
41.6000 29.118
41.6200 28.972
41.6400 29.058
41.6600 28.812
41.6800 29.623
41.7000 29.071
41.7200 30.002
41.7400 29.546
41.7600 29.144
41.7800 29.125
41.8000 28.584
41.8200 28.867
41.8400 29.800
41.8600 29.804
41.8800 29.561
41.9000 29.405
41.9200 29.783
41.9400 29.989
41.9600 29.577
41.9800 29.356
42.0000 29.713
42.0200 29.328
42.0400 29.652
42.0600 29.453
42.0800 29.919
42.1000 29.612
42.1200 29.402
42.1400 29.727
42.1600 29.821
42.1800 30.004
42.2000 29.654
42.2200 29.501
42.2400 29.754
42.2600 30.610
42.2800 30.303
42.3000 29.392
42.3200 30.163
42.3400 30.335
42.3600 30.554
42.3800 30.924
42.4000 30.636
42.4200 30.495
42.4400 30.698
42.4600 31.287
42.4800 31.260
42.5000 32.396
42.5200 31.820
42.5400 32.038
42.5600 32.193
42.5800 31.693
42.6000 31.641
42.6200 31.441
42.6400 32.439
42.6600 31.787
42.6800 31.246
42.7000 32.163
42.7200 31.065
42.7400 30.479
42.7600 31.089
42.7800 31.362
42.8000 30.349
42.8200 29.778
42.8400 30.236
42.8600 31.031
42.8800 31.054
42.9000 30.715
42.9200 30.094
42.9400 29.750
42.9600 30.009
42.9800 29.801
43.0000 30.285
43.0200 30.720
43.0400 30.930
43.0600 30.179
43.0800 31.043
43.1000 30.317
43.1200 30.296
43.1400 30.303
43.1600 31.187
43.1800 30.906
43.2000 29.896
43.2200 29.994
43.2400 30.632
43.2600 31.474
43.2800 31.073
43.3000 30.910
43.3200 30.591
43.3400 31.078
43.3600 30.889
43.3800 30.209
43.4000 31.354
43.4200 31.135
43.4400 31.798
43.4600 31.134
43.4800 30.647
43.5000 31.248
43.5200 30.856
43.5400 30.885
43.5600 30.678
43.5800 30.905
43.6000 30.841
43.6200 30.932
43.6400 31.362
43.6600 31.201
43.6800 32.012
43.7000 32.029
43.7200 31.522
43.7400 32.134
43.7600 31.959
43.7800 32.091
43.8000 32.325
43.8200 32.316
43.8400 32.284
43.8600 33.467
43.8800 33.422
43.9000 32.495
43.9200 33.187
43.9400 34.126
43.9600 34.717
43.9800 35.043
44.0000 37.164
44.0200 38.814
44.0400 42.006
44.0600 46.294
44.0800 51.765
44.1000 55.508
44.1200 60.126
44.1400 60.826
44.1600 61.863
44.1800 58.437
44.2000 56.743
44.2200 54.318
44.2400 52.888
44.2600 49.949
44.2800 46.806
44.3000 44.350
44.3200 40.726
44.3400 38.196
44.3600 35.597
44.3800 34.766
44.4000 34.395
44.4200 33.447
44.4400 33.688
44.4600 33.386
44.4800 32.376
44.5000 31.913
44.5200 32.690
44.5400 32.889
44.5600 32.439
44.5800 32.803
44.6000 32.085
44.6200 31.531
44.6400 31.508
44.6600 31.322
44.6800 32.381
44.7000 32.233
44.7200 32.426
44.7400 34.077
44.7600 35.254
44.7800 38.712
44.8000 40.879
44.8200 41.747
44.8400 40.535
44.8600 40.014
44.8800 40.065
44.9000 40.844
44.9200 43.633
44.9400 43.204
44.9600 42.831
44.9800 41.413
45.0000 41.180
45.0200 41.355
45.0400 41.122
45.0600 41.706
45.0800 41.006
45.1000 40.866
45.1200 41.167
45.1400 41.021
45.1600 41.221
45.1800 40.593
45.2000 39.864
45.2200 38.207
45.2400 38.354
45.2600 38.982
45.2800 37.707
45.3000 36.045
45.3200 37.060
45.3400 35.658
45.3600 35.283
45.3800 35.215
45.4000 34.958
45.4200 34.913
45.4400 33.606
45.4600 32.943
45.4800 32.718
45.5000 33.064
45.5200 32.791
45.5400 33.067
45.5600 33.114
45.5800 32.691
45.6000 32.787
45.6200 31.861
45.6400 31.683
45.6600 32.860
45.6800 32.101
45.7000 31.170
45.7200 31.938
45.7400 31.564
45.7600 31.358
45.7800 32.396
45.8000 32.029
45.8200 31.613
45.8400 32.449
45.8600 32.911
45.8800 32.043
45.9000 32.956
45.9200 33.151
45.9400 31.653
45.9600 32.542
45.9800 32.241
46.0000 31.691
46.0200 31.715
46.0400 32.240
46.0600 32.564
46.0800 32.160
46.1000 32.041
46.1200 32.024
46.1400 31.775
46.1600 32.123
46.1800 32.331
46.2000 31.910
46.2200 31.327
46.2400 32.425
46.2600 32.003
46.2800 32.749
46.3000 32.128
46.3200 32.413
46.3400 32.197
46.3600 32.115
46.3800 32.876
46.4000 32.892
46.4200 32.864
46.4400 31.992
46.4600 32.548
46.4800 32.898
46.5000 31.061
46.5200 31.585
46.5400 33.073
46.5600 32.452
46.5800 32.454
46.6000 32.177
46.6200 32.673
46.6400 32.094
46.6600 31.969
