'Id: "" Comment: "" Operator: "Lab Manager" Anode: "Cu" Scantype: "Coupled TwoTheta/Theta" TimePerStep: "113.4655" X: "9999" Y: "9999" Z: "-2.700037" 
20.0000 6.454
20.0200 6.686
20.0400 6.453
20.0600 6.471
20.0800 6.636
20.1000 6.696
20.1200 6.827
20.1400 7.012
20.1600 6.825
20.1800 6.504
20.2000 6.468
20.2200 6.584
20.2400 6.947
20.2600 7.300
20.2800 7.013
20.3000 7.053
20.3200 7.085
20.3400 7.047
20.3600 6.795
20.3800 7.210
20.4000 7.533
20.4200 7.240
20.4400 6.979
20.4600 6.750
20.4800 6.894
20.5000 6.819
20.5200 6.564
20.5400 7.193
20.5600 7.139
20.5800 7.247
20.6000 7.267
20.6200 7.023
20.6400 7.103
20.6600 7.198
20.6800 7.190
20.7000 6.896
20.7200 6.993
20.7400 7.383
20.7600 7.165
20.7800 7.201
20.8000 7.602
20.8200 7.513
20.8400 7.426
20.8600 7.456
20.8800 7.133
20.9000 7.208
20.9200 7.401
20.9400 7.752
20.9600 7.617
20.9800 7.351
21.0000 7.544
21.0200 7.670
21.0400 7.555
21.0600 7.588
21.0800 7.753
21.1000 7.833
21.1200 7.608
21.1400 7.712
21.1600 7.287
21.1800 7.479
21.2000 7.570
21.2200 7.393
21.2400 7.994
21.2600 8.044
21.2800 8.008
21.3000 8.301
21.3200 8.036
21.3400 8.112
21.3600 8.168
21.3800 7.951
21.4000 7.883
21.4200 7.950
21.4400 8.020
21.4600 7.953
21.4800 8.138
21.5000 8.355
21.5200 8.245
21.5400 8.107
21.5600 7.915
21.5800 7.856
21.6000 8.290
21.6200 8.355
21.6400 8.398
21.6600 8.105
21.6800 7.890
21.7000 8.104
21.7200 8.294
21.7400 7.990
21.7600 8.158
21.7800 8.458
21.8000 8.446
21.8200 8.708
21.8400 8.274
21.8600 8.263
21.8800 8.337
21.9000 8.402
21.9200 8.330
21.9400 8.447
21.9600 8.332
21.9800 8.390
22.0000 8.579
22.0200 8.251
22.0400 8.140
22.0600 8.192
22.0800 8.473
22.1000 8.282
22.1200 8.660
22.1400 8.567
22.1600 8.673
22.1800 8.381
22.2000 9.076
22.2200 8.448
22.2400 8.671
22.2600 8.401
22.2800 8.139
22.3000 8.822
22.3200 8.976
22.3400 9.016
22.3600 8.567
22.3800 8.837
22.4000 8.925
22.4200 9.100
22.4400 9.022
22.4600 9.368
22.4800 9.020
22.5000 9.387
22.5200 9.346
22.5400 9.047
22.5600 9.225
22.5800 8.961
22.6000 8.908
22.6200 8.863
22.6400 9.094
22.6600 9.162
22.6800 8.954
22.7000 8.879
22.7200 9.091
22.7400 9.376
22.7600 9.409
22.7800 9.420
22.8000 9.045
22.8200 9.526
22.8400 9.303
22.8600 9.542
22.8800 9.541
22.9000 9.788
22.9200 9.130
22.9400 9.079
22.9600 9.703
22.9800 9.373
23.0000 9.842
23.0200 10.039
23.0400 9.672
23.0600 9.340
23.0800 9.371
23.1000 9.996
23.1200 9.636
23.1400 9.950
23.1600 9.823
23.1800 9.579
23.2000 9.279
23.2200 10.100
23.2400 10.020
23.2600 9.577
23.2800 9.653
23.3000 9.758
23.3200 9.769
23.3400 9.860
23.3600 10.017
23.3800 10.182
23.4000 10.130
23.4200 9.894
23.4400 10.084
23.4600 9.895
23.4800 9.831
23.5000 9.959
23.5200 9.911
23.5400 10.198
23.5600 9.968
23.5800 10.143
23.6000 10.451
23.6200 9.657
23.6400 9.793
23.6600 10.812
23.6800 10.510
23.7000 9.950
23.7200 9.618
23.7400 10.287
23.7600 10.062
23.7800 10.434
23.8000 10.324
23.8200 10.477
23.8400 10.156
23.8600 10.011
23.8800 9.547
23.9000 10.332
23.9200 10.638
23.9400 10.471
23.9600 10.621
23.9800 10.566
24.0000 10.889
24.0200 10.459
24.0400 10.535
24.0600 10.432
24.0800 10.736
24.1000 10.667
24.1200 10.538
24.1400 10.318
24.1600 10.183
24.1800 10.099
24.2000 10.279
24.2200 10.817
24.2400 10.523
24.2600 10.476
24.2800 10.875
24.3000 10.393
24.3200 10.756
24.3400 10.650
24.3600 10.682
24.3800 10.977
24.4000 11.226
24.4200 11.151
24.4400 10.578
24.4600 10.808
24.4800 10.809
24.5000 10.356
24.5200 10.876
24.5400 10.914
24.5600 10.972
24.5800 10.665
24.6000 11.076
24.6200 11.028
24.6400 10.882
24.6600 11.257
24.6800 10.895
24.7000 11.218
24.7200 11.159
24.7400 11.099
24.7600 11.113
24.7800 11.125
24.8000 11.694
24.8200 11.485
24.8400 11.379
24.8600 11.046
24.8800 11.751
24.9000 11.566
24.9200 11.121
24.9400 11.274
24.9600 11.274
24.9800 11.503
25.0000 11.213
25.0200 11.068
25.0400 11.561
25.0600 11.173
25.0800 10.804
25.1000 10.888
25.1200 11.369
25.1400 11.456
25.1600 11.269
25.1800 11.123
25.2000 11.437
25.2200 11.641
25.2400 11.855
25.2600 11.775
25.2800 11.416
25.3000 11.566
25.3200 11.532
25.3400 12.143
25.3600 12.174
25.3800 12.015
25.4000 11.745
25.4200 11.684
25.4400 11.987
25.4600 11.726
25.4800 11.728
25.5000 11.403
25.5200 11.493
25.5400 11.947
25.5600 11.338
25.5800 11.989
25.6000 11.574
25.6200 12.073
25.6400 11.631
25.6600 12.050
25.6800 11.856
25.7000 12.220
25.7200 12.063
25.7400 11.765
25.7600 11.835
25.7800 12.357
25.8000 12.100
25.8200 11.632
25.8400 12.266
25.8600 11.500
25.8800 12.218
25.9000 12.523
25.9200 12.294
25.9400 12.359
25.9600 12.344
25.9800 12.014
26.0000 11.983
26.0200 12.395
26.0400 11.936
26.0600 12.034
26.0800 11.545
26.1000 12.312
26.1200 11.989
26.1400 11.958
26.1600 12.321
26.1800 12.146
26.2000 11.915
26.2200 12.186
26.2400 12.246
26.2600 12.299
26.2800 12.447
26.3000 11.847
26.3200 12.057
26.3400 12.430
26.3600 12.153
26.3800 12.594
26.4000 12.291
26.4200 11.956
26.4400 12.518
26.4600 12.787
26.4800 12.816
26.5000 12.932
26.5200 12.757
26.5400 12.240
26.5600 12.156
26.5800 12.849
26.6000 12.585
26.6200 12.808
26.6400 12.355
26.6600 12.505
26.6800 12.729
26.7000 12.290
26.7200 13.415
26.7400 13.669
26.7600 13.032
26.7800 12.780
26.8000 12.586
26.8200 12.744
26.8400 12.943
26.8600 13.421
26.8800 12.671
26.9000 12.777
26.9200 13.251
26.9400 12.831
26.9600 12.179
26.9800 12.674
27.0000 12.696
27.0200 12.839
27.0400 13.480
27.0600 13.163
27.0800 13.547
27.1000 13.036
27.1200 13.567
27.1400 13.191
27.1600 13.101
27.1800 12.686
27.2000 13.042
27.2200 12.634
27.2400 13.450
27.2600 13.408
27.2800 13.343
27.3000 13.064
27.3200 13.461
27.3400 12.892
27.3600 13.299
27.3800 13.745
27.4000 13.237
27.4200 13.795
27.4400 13.374
27.4600 13.280
27.4800 13.344
27.5000 13.279
27.5200 13.628
27.5400 13.560
27.5600 13.025
27.5800 12.769
27.6000 12.868
27.6200 13.555
27.6400 13.968
27.6600 13.121
27.6800 13.741
27.7000 13.355
27.7200 13.955
27.7400 13.439
27.7600 13.962
27.7800 14.067
27.8000 13.808
27.8200 13.742
27.8400 13.450
27.8600 13.990
27.8800 13.505
27.9000 13.831
27.9200 13.823
27.9400 13.478
27.9600 13.607
27.9800 13.662
28.0000 14.515
28.0200 14.235
28.0400 13.965
28.0600 14.018
28.0800 13.580
28.1000 13.928
28.1200 14.162
28.1400 13.742
28.1600 14.160
28.1800 13.793
28.2000 13.677
28.2200 13.970
28.2400 14.226
28.2600 14.320
28.2800 14.670
28.3000 14.430
28.3200 14.066
28.3400 13.888
28.3600 13.913
28.3800 14.563
28.4000 14.853
28.4200 13.900
28.4400 13.955
28.4600 14.506
28.4800 14.178
28.5000 13.788
28.5200 14.563
28.5400 14.304
28.5600 14.163
28.5800 14.200
28.6000 14.057
28.6200 14.054
28.6400 14.592
28.6600 14.297
28.6800 13.969
28.7000 14.352
28.7200 14.731
28.7400 14.119
28.7600 14.582
28.7800 14.807
28.8000 14.668
28.8200 14.632
28.8400 14.368
28.8600 14.153
28.8800 14.901
28.9000 14.393
28.9200 14.356
28.9400 14.652
28.9600 14.722
28.9800 14.636
29.0000 14.188
29.0200 14.568
29.0400 14.512
29.0600 14.484
29.0800 15.100
29.1000 15.229
29.1200 14.886
29.1400 14.788
29.1600 14.834
29.1800 15.120
29.2000 14.845
29.2200 15.133
29.2400 14.863
29.2600 15.154
29.2800 15.398
29.3000 15.433
29.3200 14.766
29.3400 14.860
29.3600 15.292
29.3800 15.107
29.4000 15.775
29.4200 15.147
29.4400 15.059
29.4600 14.987
29.4800 15.650
29.5000 15.184
29.5200 15.348
29.5400 15.724
29.5600 14.906
29.5800 15.570
29.6000 15.732
29.6200 15.698
29.6400 15.728
29.6600 16.043
29.6800 16.274
29.7000 16.100
29.7200 16.175
29.7400 16.673
29.7600 15.628
29.7800 15.623
29.8000 16.119
29.8200 15.521
29.8400 15.493
29.8600 14.532
29.8800 15.254
29.9000 15.581
29.9200 15.907
29.9400 15.390
29.9600 16.380
29.9800 16.008
30.0000 15.193
30.0200 15.741
30.0400 15.812
30.0600 15.552
30.0800 15.685
30.1000 15.294
30.1200 15.601
30.1400 15.627
30.1600 16.371
30.1800 16.007
30.2000 16.159
30.2200 16.121
30.2400 15.599
30.2600 15.385
30.2800 15.464
30.3000 16.190
30.3200 16.514
30.3400 16.259
30.3600 16.266
30.3800 16.106
30.4000 15.862
30.4200 16.032
30.4400 15.953
30.4600 15.656
30.4800 16.122
30.5000 16.322
30.5200 16.047
30.5400 15.939
30.5600 15.942
30.5800 16.056
30.6000 16.072
30.6200 16.047
30.6400 16.246
30.6600 16.689
30.6800 16.201
30.7000 16.292
30.7200 16.573
30.7400 16.453
30.7600 16.655
30.7800 16.222
30.8000 16.737
30.8200 16.326
30.8400 17.103
30.8600 16.911
30.8800 16.600
30.9000 16.547
30.9200 16.616
30.9400 16.809
30.9600 16.918
30.9800 17.067
31.0000 16.135
31.0200 16.081
31.0400 16.237
31.0600 17.034
31.0800 16.853
31.1000 16.975
31.1200 16.699
31.1400 16.593
31.1600 16.804
31.1800 17.073
31.2000 16.528
31.2200 16.693
31.2400 17.553
31.2600 16.379
31.2800 16.706
31.3000 16.630
31.3200 17.139
31.3400 16.285
31.3600 16.939
31.3800 16.582
31.4000 16.686
31.4200 16.884
31.4400 17.563
31.4600 17.043
31.4800 16.418
31.5000 17.140
31.5200 16.902
31.5400 17.124
31.5600 17.027
31.5800 16.622
31.6000 16.809
31.6200 17.396
31.6400 17.243
31.6600 17.140
31.6800 16.920
31.7000 17.225
31.7200 16.592
31.7400 16.932
31.7600 17.167
31.7800 17.310
31.8000 16.937
31.8200 17.842
31.8400 16.904
31.8600 17.188
31.8800 17.070
31.9000 17.580
31.9200 17.281
31.9400 17.828
31.9600 18.435
31.9800 17.455
32.0000 16.919
32.0200 18.053
32.0400 17.495
32.0600 17.816
32.0800 17.322
32.1000 17.472
32.1200 18.243
32.1400 17.894
32.1600 18.071
32.1800 17.615
32.2000 18.127
32.2200 18.500
32.2400 18.049
32.2600 17.762
32.2800 17.704
32.3000 17.758
32.3200 17.800
32.3400 17.542
32.3600 17.731
32.3800 17.898
32.4000 17.178
32.4200 17.903
32.4400 18.270
32.4600 18.019
32.4800 17.418
32.5000 18.701
32.5200 17.785
32.5400 17.585
32.5600 18.537
32.5800 17.596
32.6000 18.372
32.6200 18.820
32.6400 18.738
32.6600 18.315
32.6800 18.591
32.7000 17.877
32.7200 17.932
32.7400 17.883
32.7600 17.736
32.7800 18.282
32.8000 17.997
32.8200 18.683
32.8400 18.588
32.8600 17.989
32.8800 18.730
32.9000 18.288
32.9200 18.944
32.9400 18.896
32.9600 18.765
32.9800 18.723
33.0000 18.268
33.0200 17.904
33.0400 18.860
33.0600 18.168
33.0800 18.453
33.1000 18.410
33.1200 19.138
33.1400 18.878
33.1600 18.951
33.1800 18.922
33.2000 18.790
33.2200 18.518
33.2400 19.135
33.2600 18.533
33.2800 18.314
33.3000 18.606
33.3200 19.354
33.3400 19.067
33.3600 19.788
33.3800 19.181
33.4000 19.200
33.4200 18.797
33.4400 19.168
33.4600 18.985
33.4800 19.234
33.5000 19.187
33.5200 18.934
33.5400 19.371
33.5600 18.692
33.5800 18.880
33.6000 19.928
33.6200 19.419
33.6400 18.983
33.6600 19.077
33.6800 18.911
33.7000 19.365
33.7200 19.239
33.7400 19.306
33.7600 19.385
33.7800 18.992
33.8000 18.825
33.8200 19.789
33.8400 19.295
33.8600 19.668
33.8800 18.902
33.9000 19.709
33.9200 19.743
33.9400 19.619
33.9600 19.666
33.9800 19.243
34.0000 19.337
34.0200 19.750
34.0400 19.788
34.0600 19.408
34.0800 19.336
34.1000 19.560
34.1200 19.936
34.1400 19.371
34.1600 19.475
34.1800 19.952
34.2000 19.087
34.2200 19.519
34.2400 19.901
34.2600 20.038
34.2800 20.009
34.3000 19.865
34.3200 19.970
34.3400 19.507
34.3600 20.031
34.3800 20.077
34.4000 19.929
34.4200 19.980
34.4400 19.888
34.4600 20.112
34.4800 19.736
34.5000 20.435
34.5200 20.224
34.5400 20.483
34.5600 20.232
34.5800 20.560
34.6000 20.514
34.6200 20.336
34.6400 20.648
34.6600 20.992
34.6800 20.879
34.7000 19.798
34.7200 20.233
34.7400 20.626
34.7600 21.130
34.7800 21.369
34.8000 21.212
34.8200 21.301
34.8400 21.416
34.8600 22.299
34.8800 22.932
34.9000 23.379
34.9200 23.734
34.9400 23.120
34.9600 23.092
34.9800 23.501
35.0000 23.553
35.0200 23.936
35.0400 23.298
35.0600 23.084
35.0800 22.868
35.1000 21.899
35.1200 21.906
35.1400 21.390
35.1600 22.068
35.1800 21.390
35.2000 21.430
35.2200 21.050
35.2400 21.895
35.2600 21.860
35.2800 21.280
35.3000 20.895
35.3200 21.542
35.3400 21.632
35.3600 20.887
35.3800 21.530
35.4000 21.618
35.4200 20.999
35.4400 20.996
35.4600 20.815
35.4800 21.274
35.5000 21.577
35.5200 21.278
35.5400 21.274
35.5600 21.615
35.5800 21.615
35.6000 21.553
35.6200 20.650
35.6400 21.494
35.6600 21.537
35.6800 21.427
35.7000 22.018
35.7200 21.500
35.7400 22.087
35.7600 21.410
35.7800 20.592
35.8000 21.297
35.8200 21.708
35.8400 21.297
35.8600 22.025
35.8800 21.777
35.9000 21.676
35.9200 21.448
35.9400 22.073
35.9600 21.570
35.9800 21.613
36.0000 22.151
36.0200 21.862
36.0400 21.837
36.0600 22.042
36.0800 21.861
36.1000 21.331
36.1200 22.565
36.1400 21.499
36.1600 22.152
36.1800 22.158
36.2000 21.449
36.2200 22.094
36.2400 21.789
36.2600 21.741
36.2800 20.901
36.3000 21.927
36.3200 22.699
36.3400 21.947
36.3600 21.687
36.3800 22.081
36.4000 22.497
36.4200 21.858
36.4400 22.560
36.4600 22.301
36.4800 22.736
36.5000 22.091
36.5200 23.314
36.5400 23.220
36.5600 22.595
36.5800 22.253
36.6000 23.218
36.6200 23.046
36.6400 23.129
36.6600 22.751
36.6800 23.697
36.7000 22.974
36.7200 23.276
36.7400 23.323
36.7600 23.657
36.7800 23.450
36.8000 22.392
36.8200 23.425
36.8400 22.944
36.8600 22.734
36.8800 23.056
36.9000 22.978
36.9200 22.913
36.9400 23.103
36.9600 23.258
36.9800 22.989
37.0000 23.515
37.0200 23.054
37.0400 23.344
37.0600 23.795
37.0800 23.484
37.1000 22.731
37.1200 23.592
37.1400 22.864
37.1600 23.728
37.1800 23.890
37.2000 24.122
37.2200 23.616
37.2400 24.045
37.2600 23.774
37.2800 23.658
37.3000 24.363
37.3200 23.756
37.3400 24.180
37.3600 23.489
37.3800 25.080
37.4000 24.367
37.4200 23.897
37.4400 24.363
37.4600 23.783
37.4800 24.361
37.5000 24.663
37.5200 24.290
37.5400 23.768
37.5600 24.120
37.5800 24.142
37.6000 24.006
37.6200 24.488
37.6400 25.037
37.6600 25.195
37.6800 24.416
37.7000 24.423
37.7200 24.962
37.7400 24.842
37.7600 23.900
37.7800 24.411
37.8000 24.717
37.8200 24.698
37.8400 24.540
37.8600 24.328
37.8800 24.739
37.9000 23.966
37.9200 23.963
37.9400 24.901
37.9600 25.453
37.9800 25.203
38.0000 25.709
38.0200 25.103
38.0400 24.429
38.0600 24.688
38.0800 25.363
38.1000 24.651
38.1200 25.667
38.1400 25.364
38.1600 25.135
38.1800 25.166
38.2000 25.243
38.2200 25.525
38.2400 24.922
38.2600 25.264
38.2800 25.932
38.3000 25.040
38.3200 25.224
38.3400 25.624
38.3600 25.588
38.3800 25.734
38.4000 25.351
38.4200 24.950
38.4400 26.370
38.4600 26.352
38.4800 26.058
38.5000 25.919
38.5200 25.754
38.5400 25.186
38.5600 24.927
38.5800 25.589
38.6000 25.636
38.6200 26.128
38.6400 25.978
38.6600 25.899
38.6800 25.773
38.7000 25.163
38.7200 26.189
38.7400 26.207
38.7600 25.440
38.7800 26.212
38.8000 26.044
38.8200 26.055
38.8400 26.457
38.8600 25.295
38.8800 25.672
38.9000 25.873
38.9200 25.962
38.9400 26.110
38.9600 26.130
38.9800 26.422
39.0000 26.837
39.0200 26.576
39.0400 26.074
39.0600 26.260
39.0800 26.790
39.1000 26.193
39.1200 26.649
39.1400 26.659
39.1600 26.390
39.1800 26.885
39.2000 27.157
39.2200 26.850
39.2400 26.291
39.2600 26.776
39.2800 26.128
39.3000 26.314
39.3200 26.683
39.3400 26.440
39.3600 26.184
39.3800 27.204
39.4000 26.958
39.4200 26.185
39.4400 27.304
39.4600 27.054
39.4800 27.220
39.5000 26.784
39.5200 27.160
39.5400 26.867
39.5600 26.942
39.5800 27.370
39.6000 27.191
39.6200 26.563
39.6400 27.571
39.6600 27.870
39.6800 26.605
39.7000 27.094
39.7200 26.148
39.7400 26.312
39.7600 27.191
39.7800 27.094
39.8000 27.290
39.8200 27.864
39.8400 26.984
39.8600 27.118
39.8800 27.476
39.9000 26.894
39.9200 26.709
39.9400 27.754
39.9600 27.141
39.9800 27.168
40.0000 27.744
40.0200 27.226
40.0400 27.135
40.0600 27.161
40.0800 27.290
40.1000 27.910
40.1200 27.262
40.1400 27.842
40.1600 27.538
40.1800 28.492
40.2000 27.837
40.2200 27.825
40.2400 28.109
40.2600 27.484
40.2800 27.589
40.3000 28.123
40.3200 28.529
40.3400 28.755
40.3600 28.249
40.3800 27.602
40.4000 27.554
40.4200 27.810
40.4400 28.135
40.4600 27.883
40.4800 27.983
40.5000 27.755
40.5200 27.551
40.5400 28.064
40.5600 28.109
40.5800 27.658
40.6000 27.633
40.6200 28.409
40.6400 27.845
40.6600 28.157
40.6800 28.423
40.7000 28.633
40.7200 27.902
40.7400 28.196
40.7600 27.932
40.7800 27.826
40.8000 27.626
40.8200 27.897
40.8400 28.083
40.8600 28.677
40.8800 28.606
40.9000 28.312
40.9200 28.478
40.9400 28.564
40.9600 28.399
40.9800 27.998
41.0000 28.682
41.0200 28.264
41.0400 27.780
41.0600 27.958
41.0800 28.797
41.1000 27.301
41.1200 28.502
41.1400 29.742
41.1600 28.802
41.1800 29.118
41.2000 28.831
41.2200 27.986
41.2400 28.534
41.2600 28.893
41.2800 29.208
41.3000 28.709
41.3200 29.210
41.3400 29.347
41.3600 28.448
41.3800 28.587
41.4000 29.825
41.4200 29.694
41.4400 28.612
41.4600 28.506
41.4800 28.632
41.5000 29.346
41.5200 29.574
41.5400 28.842
41.5600 28.715
41.5800 28.323
41.6000 28.617
41.6200 29.169
41.6400 29.068
41.6600 27.910
41.6800 29.020
41.7000 30.119
41.7200 29.702
41.7400 29.595
41.7600 30.226
41.7800 29.600
41.8000 28.349
41.8200 29.379
41.8400 29.768
41.8600 29.740
41.8800 29.421
41.9000 29.329
41.9200 28.983
41.9400 28.990
41.9600 29.377
41.9800 29.972
42.0000 29.739
42.0200 29.617
42.0400 29.151
42.0600 29.939
42.0800 29.210
42.1000 28.877
42.1200 29.600
42.1400 29.127
42.1600 30.370
42.1800 30.168
42.2000 30.052
42.2200 30.072
42.2400 30.138
42.2600 31.145
42.2800 30.598
42.3000 29.930
42.3200 30.328
42.3400 31.209
42.3600 30.950
42.3800 31.359
42.4000 31.350
42.4200 31.797
42.4400 30.578
42.4600 30.945
42.4800 31.293
42.5000 31.816
42.5200 32.997
42.5400 33.172
42.5600 31.645
42.5800 31.575
42.6000 31.490
42.6200 31.848
42.6400 32.409
42.6600 32.278
42.6800 31.235
42.7000 31.241
42.7200 30.978
42.7400 31.310
42.7600 31.251
42.7800 30.903
42.8000 30.768
42.8200 29.843
42.8400 29.985
42.8600 30.171
42.8800 30.125
42.9000 30.767
42.9200 30.150
42.9400 30.183
42.9600 30.144
42.9800 29.838
43.0000 30.085
43.0200 29.884
43.0400 30.415
43.0600 30.299
43.0800 29.631
43.1000 31.283
43.1200 30.845
43.1400 29.722
43.1600 30.345
43.1800 30.552
43.2000 29.993
43.2200 30.795
43.2400 30.594
43.2600 30.476
43.2800 31.127
43.3000 30.160
43.3200 30.714
43.3400 30.804
43.3600 30.723
43.3800 31.082
43.4000 30.897
43.4200 30.329
43.4400 29.866
43.4600 30.476
43.4800 30.465
43.5000 30.443
43.5200 31.493
43.5400 31.224
43.5600 30.770
43.5800 30.723
43.6000 31.357
43.6200 30.836
43.6400 31.232
43.6600 31.134
43.6800 30.626
43.7000 31.411
43.7200 31.956
43.7400 31.142
43.7600 31.016
43.7800 31.595
43.8000 31.798
43.8200 32.145
43.8400 32.996
43.8600 32.192
43.8800 33.161
43.9000 33.564
43.9200 34.422
43.9400 34.361
43.9600 34.975
43.9800 35.442
44.0000 37.697
44.0200 40.359
44.0400 43.185
44.0600 47.653
44.0800 52.934
44.1000 57.059
44.1200 60.391
44.1400 60.526
44.1600 59.673
44.1800 55.977
44.2000 54.730
44.2200 52.512
44.2400 50.400
44.2600 48.578
44.2800 45.713
44.3000 41.894
44.3200 39.002
44.3400 37.453
44.3600 35.650
44.3800 35.046
44.4000 33.670
44.4200 32.417
44.4400 33.249
44.4600 32.819
44.4800 31.378
44.5000 31.963
44.5200 32.063
44.5400 32.176
44.5600 32.035
44.5800 32.603
44.6000 31.694
44.6200 31.938
44.6400 32.560
44.6600 32.814
44.6800 31.744
44.7000 32.671
44.7200 33.878
44.7400 34.806
44.7600 36.862
44.7800 40.155
44.8000 41.417
44.8200 40.364
44.8400 40.433
44.8600 40.590
44.8800 41.747
44.9000 43.424
44.9200 43.546
44.9400 43.277
44.9600 42.553
44.9800 41.454
45.0000 41.128
45.0200 41.316
45.0400 41.054
45.0600 41.300
45.0800 40.846
45.1000 40.257
45.1200 41.805
45.1400 40.613
45.1600 39.349
45.1800 39.943
45.2000 38.176
45.2200 38.918
45.2400 38.994
45.2600 38.049
45.2800 37.434
45.3000 36.489
45.3200 36.244
45.3400 35.036
45.3600 35.439
45.3800 34.671
45.4000 34.807
45.4200 33.674
45.4400 34.187
45.4600 33.126
45.4800 33.826
45.5000 32.887
45.5200 32.640
45.5400 32.387
45.5600 32.259
45.5800 32.069
45.6000 31.569
45.6200 32.217
45.6400 30.889
45.6600 31.365
45.6800 30.708
45.7000 31.471
45.7200 32.044
45.7400 32.111
45.7600 31.952
45.7800 31.916
45.8000 32.347
45.8200 33.064
45.8400 32.123
45.8600 30.771
45.8800 32.009
45.9000 31.490
45.9200 31.915
45.9400 32.181
45.9600 32.266
45.9800 31.857
46.0000 32.472
46.0200 32.485
46.0400 32.428
46.0600 32.511
46.0800 31.417
46.1000 32.566
46.1200 31.461
46.1400 32.711
46.1600 31.303
46.1800 31.807
46.2000 32.346
46.2200 32.539
46.2400 32.584
46.2600 32.546
46.2800 31.985
46.3000 32.580
46.3200 32.196
46.3400 31.925
46.3600 31.881
46.3800 32.642
46.4000 32.747
46.4200 32.012
46.4400 32.354
46.4600 32.342
46.4800 32.601
46.5000 32.835
46.5200 32.825
46.5400 32.507
46.5600 32.347
46.5800 32.793
46.6000 33.335
46.6200 32.037
46.6400 32.504
46.6600 32.279
46.6800 31.963
