'Id: "" Comment: "" Operator: "Lab Manager" Anode: "Cu" Scantype: "Coupled TwoTheta/Theta" TimePerStep: "113.4653" X: "9999" Y: "9999" Z: "-2.700037" 
20.0000 8.291
20.0200 8.272
20.0400 7.705
20.0600 7.684
20.0800 8.060
20.1000 8.448
20.1200 8.114
20.1400 8.191
20.1600 8.431
20.1800 8.355
20.2000 8.584
20.2200 8.556
20.2400 8.421
20.2600 8.307
20.2800 8.353
20.3000 8.099
20.3200 8.123
20.3400 8.629
20.3600 8.266
20.3800 8.518
20.4000 8.648
20.4200 8.276
20.4400 8.433
20.4600 8.110
20.4800 8.601
20.5000 8.710
20.5200 8.638
20.5400 8.573
20.5600 8.714
20.5800 8.604
20.6000 8.368
20.6200 8.539
20.6400 8.719
20.6600 8.992
20.6800 8.540
20.7000 8.900
20.7200 8.127
20.7400 8.918
20.7600 8.796
20.7800 8.852
20.8000 8.745
20.8200 8.768
20.8400 8.565
20.8600 8.592
20.8800 8.560
20.9000 8.674
20.9200 8.393
20.9400 8.764
20.9600 8.549
20.9800 8.862
21.0000 8.794
21.0200 8.760
21.0400 9.236
21.0600 8.997
21.0800 8.889
21.1000 8.583
21.1200 8.700
21.1400 8.817
21.1600 9.217
21.1800 8.907
21.2000 9.192
21.2200 8.590
21.2400 9.166
21.2600 9.084
21.2800 9.171
21.3000 8.926
21.3200 9.173
21.3400 8.861
21.3600 9.166
21.3800 9.373
21.4000 8.834
21.4200 8.994
21.4400 9.525
21.4600 9.223
21.4800 8.926
21.5000 9.108
21.5200 9.439
21.5400 9.187
21.5600 9.301
21.5800 9.558
21.6000 9.037
21.6200 9.134
21.6400 9.153
21.6600 9.439
21.6800 9.097
21.7000 9.354
21.7200 9.391
21.7400 8.917
21.7600 8.998
21.7800 9.162
21.8000 9.518
21.8200 9.574
21.8400 9.313
21.8600 9.499
21.8800 9.318
21.9000 9.613
21.9200 9.519
21.9400 9.380
21.9600 9.230
21.9800 9.512
22.0000 9.381
22.0200 9.434
22.0400 9.540
22.0600 9.820
22.0800 9.438
22.1000 9.324
22.1200 9.808
22.1400 9.312
22.1600 9.297
22.1800 9.701
22.2000 9.425
22.2200 9.613
22.2400 9.632
22.2600 9.727
22.2800 9.603
22.3000 9.328
22.3200 9.959
22.3400 9.433
22.3600 9.547
22.3800 9.140
22.4000 9.783
22.4200 9.284
22.4400 9.308
22.4600 9.664
22.4800 9.641
22.5000 9.566
22.5200 9.863
22.5400 9.708
22.5600 9.879
22.5800 9.914
22.6000 9.902
22.6200 9.486
22.6400 9.218
22.6600 9.692
22.6800 10.573
22.7000 9.738
22.7200 10.192
22.7400 9.605
22.7600 9.393
22.7800 9.860
22.8000 10.717
22.8200 10.010
22.8400 10.334
22.8600 10.094
22.8800 10.428
22.9000 9.983
22.9200 9.921
22.9400 9.642
22.9600 10.225
22.9800 10.035
23.0000 10.072
23.0200 10.592
23.0400 10.152
23.0600 10.022
23.0800 9.635
23.1000 10.164
23.1200 10.252
23.1400 9.971
23.1600 10.634
23.1800 10.257
23.2000 10.156
23.2200 9.793
23.2400 9.701
23.2600 10.408
23.2800 10.139
23.3000 10.175
23.3200 9.787
23.3400 10.150
23.3600 10.139
23.3800 10.213
23.4000 10.379
23.4200 10.485
23.4400 10.592
23.4600 10.927
23.4800 10.338
23.5000 10.517
23.5200 11.059
23.5400 10.914
23.5600 10.526
23.5800 10.163
23.6000 10.133
23.6200 10.467
23.6400 10.468
23.6600 11.003
23.6800 10.783
23.7000 10.920
23.7200 10.508
23.7400 10.824
23.7600 10.810
23.7800 10.655
23.8000 10.895
23.8200 11.161
23.8400 10.557
23.8600 10.159
23.8800 10.254
23.9000 10.341
23.9200 10.413
23.9400 10.946
23.9600 10.888
23.9800 10.861
24.0000 10.794
24.0200 10.978
24.0400 10.861
24.0600 10.955
24.0800 10.770
24.1000 10.795
24.1200 10.857
24.1400 10.789
24.1600 11.358
24.1800 10.828
24.2000 10.917
24.2200 11.033
24.2400 10.998
24.2600 10.970
24.2800 11.415
24.3000 10.957
24.3200 10.863
24.3400 10.947
24.3600 10.872
24.3800 11.335
24.4000 10.815
24.4200 11.022
24.4400 11.207
24.4600 11.399
24.4800 11.334
24.5000 11.239
24.5200 11.115
24.5400 11.500
24.5600 11.157
24.5800 10.729
24.6000 11.158
24.6200 10.690
24.6400 11.380
24.6600 11.267
24.6800 11.421
24.7000 11.421
24.7200 11.382
24.7400 11.909
24.7600 11.716
24.7800 11.560
24.8000 11.019
24.8200 11.467
24.8400 10.899
24.8600 11.272
24.8800 11.493
24.9000 11.173
24.9200 11.297
24.9400 11.557
24.9600 11.349
24.9800 10.898
25.0000 11.477
25.0200 11.670
25.0400 11.005
25.0600 11.475
25.0800 11.612
25.1000 11.633
25.1200 12.021
25.1400 11.700
25.1600 11.504
25.1800 11.633
25.2000 12.285
25.2200 11.761
25.2400 11.674
25.2600 12.197
25.2800 11.891
25.3000 11.903
25.3200 11.598
25.3400 11.789
25.3600 12.089
25.3800 12.032
25.4000 11.502
25.4200 12.016
25.4400 12.215
25.4600 11.973
25.4800 12.273
25.5000 11.970
25.5200 11.805
25.5400 11.740
25.5600 11.578
25.5800 11.878
25.6000 12.234
25.6200 12.225
25.6400 12.174
25.6600 11.658
25.6800 11.888
25.7000 11.878
25.7200 12.058
25.7400 12.407
25.7600 12.494
25.7800 12.111
25.8000 12.154
25.8200 12.445
25.8400 11.992
25.8600 12.615
25.8800 12.671
25.9000 12.329
25.9200 12.471
25.9400 12.112
25.9600 12.045
25.9800 12.356
26.0000 12.150
26.0200 12.171
26.0400 12.324
26.0600 12.367
26.0800 12.340
26.1000 12.031
26.1200 12.149
26.1400 12.382
26.1600 12.233
26.1800 12.458
26.2000 12.646
26.2200 12.549
26.2400 12.572
26.2600 12.865
26.2800 12.527
26.3000 12.861
26.3200 12.866
26.3400 12.725
26.3600 12.905
26.3800 13.199
26.4000 12.592
26.4200 12.908
26.4400 12.301
26.4600 12.622
26.4800 12.980
26.5000 12.677
26.5200 12.942
26.5400 13.530
26.5600 12.613
26.5800 12.647
26.6000 12.837
26.6200 12.527
26.6400 12.603
26.6600 13.269
26.6800 12.889
26.7000 13.097
26.7200 13.149
26.7400 13.017
26.7600 12.799
26.7800 12.920
26.8000 13.006
26.8200 12.530
26.8400 12.634
26.8600 13.258
26.8800 14.020
26.9000 13.609
26.9200 13.822
26.9400 13.682
26.9600 13.063
26.9800 12.876
27.0000 12.901
27.0200 12.904
27.0400 13.421
27.0600 13.542
27.0800 13.392
27.1000 12.602
27.1200 13.045
27.1400 13.841
27.1600 13.350
27.1800 13.367
27.2000 13.499
27.2200 13.912
27.2400 13.901
27.2600 13.299
27.2800 13.207
27.3000 13.257
27.3200 13.149
27.3400 13.407
27.3600 12.909
27.3800 13.423
27.4000 12.904
27.4200 13.617
27.4400 13.219
27.4600 13.548
27.4800 13.454
27.5000 13.706
27.5200 13.878
27.5400 13.634
27.5600 13.621
27.5800 14.152
27.6000 13.973
27.6200 14.149
27.6400 13.576
27.6600 14.049
27.6800 13.772
27.7000 13.042
27.7200 13.481
27.7400 13.508
27.7600 13.826
27.7800 13.928
27.8000 14.284
27.8200 14.391
27.8400 14.362
27.8600 14.167
27.8800 14.476
27.9000 14.055
27.9200 13.417
27.9400 13.900
27.9600 14.153
27.9800 13.806
28.0000 14.006
28.0200 13.663
28.0400 13.895
28.0600 14.057
28.0800 13.802
28.1000 14.052
28.1200 13.780
28.1400 13.870
28.1600 14.336
28.1800 15.063
28.2000 14.013
28.2200 13.853
28.2400 14.399
28.2600 14.520
28.2800 14.693
28.3000 14.023
28.3200 14.048
28.3400 14.158
28.3600 14.563
28.3800 14.505
28.4000 13.998
28.4200 14.420
28.4400 14.092
28.4600 14.331
28.4800 14.791
28.5000 14.398
28.5200 14.456
28.5400 14.967
28.5600 14.970
28.5800 14.900
28.6000 15.019
28.6200 15.324
28.6400 14.870
28.6600 14.665
28.6800 14.735
28.7000 14.953
28.7200 14.972
28.7400 14.280
28.7600 14.774
28.7800 15.093
28.8000 14.715
28.8200 15.022
28.8400 15.166
28.8600 15.010
28.8800 14.677
28.9000 14.348
28.9200 15.227
28.9400 15.415
28.9600 15.056
28.9800 14.958
29.0000 15.022
29.0200 14.938
29.0400 14.577
29.0600 15.164
29.0800 15.315
29.1000 15.449
29.1200 15.361
29.1400 14.928
29.1600 14.759
29.1800 14.534
29.2000 15.120
29.2200 14.890
29.2400 15.243
29.2600 15.582
29.2800 15.745
29.3000 14.945
29.3200 15.122
29.3400 15.921
29.3600 15.215
29.3800 15.432
29.4000 15.058
29.4200 15.183
29.4400 15.667
29.4600 15.609
29.4800 16.056
29.5000 15.834
29.5200 15.600
29.5400 15.386
29.5600 15.317
29.5800 15.618
29.6000 15.575
29.6200 15.806
29.6400 16.374
29.6600 16.071
29.6800 16.334
29.7000 15.817
29.7200 16.087
29.7400 16.384
29.7600 15.894
29.7800 15.978
29.8000 15.805
29.8200 16.120
29.8400 15.828
29.8600 15.635
29.8800 15.927
29.9000 15.729
29.9200 16.132
29.9400 15.948
29.9600 15.608
29.9800 15.411
30.0000 15.801
30.0200 15.233
30.0400 15.585
30.0600 16.008
30.0800 15.690
30.1000 15.680
30.1200 16.320
30.1400 15.746
30.1600 16.144
30.1800 15.898
30.2000 16.133
30.2200 15.817
30.2400 15.718
30.2600 16.229
30.2800 16.091
30.3000 15.826
30.3200 16.487
30.3400 16.008
30.3600 16.042
30.3800 16.189
30.4000 15.787
30.4200 16.072
30.4400 16.854
30.4600 16.565
30.4800 16.292
30.5000 16.830
30.5200 16.467
30.5400 16.210
30.5600 16.639
30.5800 16.607
30.6000 17.084
30.6200 16.857
30.6400 16.214
30.6600 15.980
30.6800 16.346
30.7000 16.080
30.7200 16.435
30.7400 16.879
30.7600 17.077
30.7800 16.799
30.8000 16.966
30.8200 17.198
30.8400 16.112
30.8600 16.652
30.8800 17.105
30.9000 17.060
30.9200 16.498
30.9400 16.571
30.9600 16.525
30.9800 16.625
31.0000 16.542
31.0200 16.962
31.0400 16.370
31.0600 16.764
31.0800 16.485
31.1000 17.083
31.1200 17.308
31.1400 16.807
31.1600 16.953
31.1800 16.631
31.2000 17.241
31.2200 16.682
31.2400 16.583
31.2600 17.260
31.2800 17.580
31.3000 16.731
31.3200 17.010
31.3400 17.572
31.3600 17.682
31.3800 17.066
31.4000 17.064
31.4200 16.831
31.4400 17.416
31.4600 17.520
31.4800 17.659
31.5000 17.956
31.5200 17.651
31.5400 17.458
31.5600 17.331
31.5800 17.716
31.6000 17.003
31.6200 16.980
31.6400 17.714
31.6600 17.634
31.6800 17.141
31.7000 16.748
31.7200 17.494
31.7400 17.280
31.7600 17.716
31.7800 18.154
31.8000 17.847
31.8200 17.982
31.8400 17.824
31.8600 18.083
31.8800 17.387
31.9000 17.650
31.9200 17.225
31.9400 18.031
31.9600 17.738
31.9800 17.733
32.0000 17.900
32.0200 17.728
32.0400 17.568
32.0600 17.815
32.0800 17.938
32.1000 17.001
32.1200 17.848
32.1400 17.894
32.1600 18.353
32.1800 18.112
32.2000 18.448
32.2200 18.652
32.2400 18.703
32.2600 18.371
32.2800 18.557
32.3000 18.133
32.3200 18.434
32.3400 18.256
32.3600 17.939
32.3800 17.799
32.4000 17.301
32.4200 18.751
32.4400 18.139
32.4600 17.828
32.4800 18.003
32.5000 17.878
32.5200 17.791
32.5400 18.673
32.5600 18.264
32.5800 18.951
32.6000 18.461
32.6200 18.666
32.6400 18.679
32.6600 18.632
32.6800 18.257
32.7000 18.595
32.7200 19.193
32.7400 18.300
32.7600 18.706
32.7800 18.767
32.8000 19.052
32.8200 18.516
32.8400 18.691
32.8600 19.041
32.8800 19.493
32.9000 19.135
32.9200 18.770
32.9400 18.781
32.9600 18.705
32.9800 18.862
33.0000 18.582
33.0200 18.507
33.0400 18.928
33.0600 19.149
33.0800 19.157
33.1000 19.474
33.1200 19.439
33.1400 19.104
33.1600 18.136
33.1800 19.165
33.2000 18.994
33.2200 19.541
33.2400 19.291
33.2600 18.900
33.2800 19.251
33.3000 19.362
33.3200 18.871
33.3400 19.134
33.3600 19.561
33.3800 18.967
33.4000 18.879
33.4200 19.067
33.4400 18.795
33.4600 19.083
33.4800 19.445
33.5000 19.205
33.5200 18.885
33.5400 19.674
33.5600 20.007
33.5800 19.659
33.6000 19.982
33.6200 19.414
33.6400 19.669
33.6600 19.440
33.6800 19.662
33.7000 19.615
33.7200 19.501
33.7400 20.058
33.7600 19.678
33.7800 19.580
33.8000 19.517
33.8200 19.446
33.8400 19.743
33.8600 19.759
33.8800 19.814
33.9000 20.068
33.9200 20.034
33.9400 20.227
33.9600 20.167
33.9800 21.258
34.0000 20.188
34.0200 20.394
34.0400 20.051
34.0600 20.430
34.0800 20.005
34.1000 20.328
34.1200 20.255
34.1400 20.310
34.1600 20.569
34.1800 20.293
34.2000 20.156
34.2200 19.691
34.2400 20.394
34.2600 20.275
34.2800 19.831
34.3000 20.720
34.3200 20.558
34.3400 19.886
34.3600 20.548
34.3800 20.305
34.4000 20.511
34.4200 20.766
34.4400 20.309
34.4600 20.419
34.4800 20.811
34.5000 20.645
34.5200 20.729
34.5400 20.777
34.5600 20.758
34.5800 21.142
34.6000 20.531
34.6200 20.575
34.6400 20.767
34.6600 20.993
34.6800 21.414
34.7000 21.127
34.7200 20.833
34.7400 20.396
34.7600 20.919
34.7800 20.766
34.8000 20.797
34.8200 21.218
34.8400 21.197
34.8600 20.953
34.8800 21.613
34.9000 21.307
34.9200 21.881
34.9400 22.215
34.9600 22.411
34.9800 22.600
35.0000 22.515
35.0200 22.362
35.0400 22.163
35.0600 21.263
35.0800 21.535
35.1000 21.729
35.1200 21.729
35.1400 21.540
35.1600 21.150
35.1800 21.057
35.2000 21.514
35.2200 21.914
35.2400 21.788
35.2600 21.673
35.2800 21.311
35.3000 21.839
35.3200 21.471
35.3400 20.934
35.3600 21.608
35.3800 20.979
35.4000 21.314
35.4200 21.493
35.4400 21.761
35.4600 22.426
35.4800 22.106
35.5000 21.603
35.5200 21.575
35.5400 21.985
35.5600 21.946
35.5800 21.742
35.6000 21.761
35.6200 21.473
35.6400 21.618
35.6600 22.652
35.6800 21.462
35.7000 22.120
35.7200 22.049
35.7400 22.024
35.7600 22.682
35.7800 22.196
35.8000 22.483
35.8200 22.136
35.8400 22.136
35.8600 22.648
35.8800 22.701
35.9000 22.224
35.9200 21.638
35.9400 21.993
35.9600 21.846
35.9800 21.904
36.0000 22.281
36.0200 21.814
36.0400 22.189
36.0600 23.379
36.0800 22.074
36.1000 22.589
36.1200 22.970
36.1400 22.221
36.1600 22.228
36.1800 22.332
36.2000 22.506
36.2200 22.208
36.2400 22.236
36.2600 22.540
36.2800 22.075
36.3000 23.104
36.3200 22.121
36.3400 22.850
36.3600 22.818
36.3800 22.534
36.4000 22.457
36.4200 23.076
36.4400 22.878
36.4600 22.315
36.4800 22.330
36.5000 22.822
36.5200 22.685
36.5400 22.977
36.5600 23.183
36.5800 23.329
36.6000 23.085
36.6200 23.759
36.6400 22.822
36.6600 23.295
36.6800 23.264
36.7000 23.064
36.7200 22.675
36.7400 23.182
36.7600 23.126
36.7800 23.935
36.8000 23.708
36.8200 23.130
36.8400 23.080
36.8600 23.003
36.8800 23.988
36.9000 23.380
36.9200 22.750
36.9400 23.360
36.9600 23.301
36.9800 23.866
37.0000 23.262
37.0200 23.652
37.0400 24.117
37.0600 23.178
37.0800 23.915
37.1000 23.538
37.1200 23.395
37.1400 24.105
37.1600 24.366
37.1800 24.313
37.2000 24.782
37.2200 23.430
37.2400 24.410
37.2600 25.197
37.2800 24.981
37.3000 24.127
37.3200 24.158
37.3400 24.493
37.3600 24.196
37.3800 24.267
37.4000 24.316
37.4200 24.842
37.4400 25.033
37.4600 24.769
37.4800 24.388
37.5000 24.564
37.5200 25.112
37.5400 25.164
37.5600 24.411
37.5800 24.536
37.6000 24.451
37.6200 24.994
37.6400 25.718
37.6600 24.789
37.6800 25.112
37.7000 24.885
37.7200 24.952
37.7400 24.658
37.7600 25.044
37.7800 25.171
37.8000 25.458
37.8200 24.867
37.8400 25.797
37.8600 25.271
37.8800 25.225
37.9000 26.081
37.9200 26.156
37.9400 25.776
37.9600 25.057
37.9800 25.701
38.0000 25.220
38.0200 25.446
38.0400 25.336
38.0600 25.091
38.0800 25.572
38.1000 25.324
38.1200 25.583
38.1400 24.887
38.1600 25.645
38.1800 25.683
38.2000 24.614
38.2200 25.551
38.2400 26.591
38.2600 26.356
38.2800 25.570
38.3000 26.030
38.3200 26.084
38.3400 26.082
38.3600 25.780
38.3800 26.050
38.4000 26.714
38.4200 26.098
38.4400 26.448
38.4600 26.349
38.4800 26.252
38.5000 26.691
38.5200 25.794
38.5400 25.819
38.5600 26.469
38.5800 26.092
38.6000 25.968
38.6200 26.655
38.6400 26.294
38.6600 26.375
38.6800 26.538
38.7000 26.888
38.7200 26.284
38.7400 26.301
38.7600 26.227
38.7800 26.742
38.8000 26.111
38.8200 26.293
38.8400 27.224
38.8600 26.001
38.8800 26.388
38.9000 26.361
38.9200 25.863
38.9400 27.000
38.9600 26.313
38.9800 26.196
39.0000 26.760
39.0200 27.037
39.0400 26.384
39.0600 27.062
39.0800 27.163
39.1000 27.206
39.1200 27.616
39.1400 27.623
39.1600 27.949
39.1800 27.643
39.2000 27.630
39.2200 26.856
39.2400 27.211
39.2600 27.435
39.2800 27.655
39.3000 27.607
39.3200 27.414
39.3400 26.679
39.3600 26.566
39.3800 26.824
39.4000 27.700
39.4200 27.696
39.4400 27.595
39.4600 27.211
39.4800 27.628
39.5000 27.579
39.5200 27.500
39.5400 27.446
39.5600 27.258
39.5800 27.811
39.6000 27.449
39.6200 27.937
39.6400 28.148
39.6600 27.797
39.6800 27.920
39.7000 27.005
39.7200 27.642
39.7400 28.065
39.7600 28.198
39.7800 28.963
39.8000 27.816
39.8200 27.729
39.8400 27.786
39.8600 27.951
39.8800 28.422
39.9000 28.083
39.9200 27.909
39.9400 28.453
39.9600 28.156
39.9800 28.120
40.0000 28.069
40.0200 27.877
40.0400 27.110
40.0600 27.474
40.0800 27.717
40.1000 27.318
40.1200 28.142
40.1400 27.536
40.1600 27.885
40.1800 28.532
40.2000 28.235
40.2200 28.190
40.2400 28.379
40.2600 27.801
40.2800 28.105
40.3000 27.651
40.3200 27.845
40.3400 27.651
40.3600 28.005
40.3800 28.089
40.4000 28.480
40.4200 28.839
40.4400 28.344
40.4600 28.330
40.4800 28.365
40.5000 28.437
40.5200 29.033
40.5400 28.364
40.5600 29.282
40.5800 28.430
40.6000 28.941
40.6200 29.025
40.6400 28.600
40.6600 28.840
40.6800 28.852
40.7000 27.510
40.7200 28.621
40.7400 28.289
40.7600 28.285
40.7800 28.963
40.8000 28.158
40.8200 28.916
40.8400 29.152
40.8600 28.340
40.8800 28.604
40.9000 28.981
40.9200 28.861
40.9400 29.364
40.9600 28.890
40.9800 28.635
41.0000 29.324
41.0200 28.503
41.0400 28.585
41.0600 29.879
41.0800 29.503
41.1000 28.620
41.1200 29.315
41.1400 29.376
41.1600 28.897
41.1800 29.076
41.2000 29.325
41.2200 28.980
41.2400 29.718
41.2600 29.523
41.2800 29.814
41.3000 29.690
41.3200 29.476
41.3400 29.665
41.3600 30.328
41.3800 29.027
41.4000 28.994
41.4200 28.781
41.4400 29.304
41.4600 28.954
41.4800 29.357
41.5000 29.525
41.5200 29.812
41.5400 29.542
41.5600 28.922
41.5800 30.097
41.6000 29.631
41.6200 29.708
41.6400 28.894
41.6600 30.108
41.6800 29.975
41.7000 30.308
41.7200 29.685
41.7400 28.719
41.7600 29.275
41.7800 28.961
41.8000 29.075
41.8200 29.083
41.8400 29.596
41.8600 30.199
41.8800 31.138
41.9000 29.481
41.9200 30.762
41.9400 29.709
41.9600 29.923
41.9800 29.913
42.0000 30.010
42.0200 30.086
42.0400 30.748
42.0600 30.154
42.0800 30.224
42.1000 30.274
42.1200 30.190
42.1400 30.472
42.1600 29.957
42.1800 30.695
42.2000 29.135
42.2200 30.638
42.2400 30.673
42.2600 30.597
42.2800 30.404
42.3000 30.546
42.3200 30.298
42.3400 29.902
42.3600 30.874
42.3800 31.016
42.4000 30.856
42.4200 30.346
42.4400 30.550
42.4600 31.095
42.4800 31.290
42.5000 31.675
42.5200 31.880
42.5400 31.439
42.5600 31.021
42.5800 31.711
42.6000 31.764
42.6200 31.825
42.6400 30.731
42.6600 31.194
42.6800 31.139
42.7000 31.199
42.7200 31.025
42.7400 30.950
42.7600 31.245
42.7800 31.391
42.8000 30.919
42.8200 30.889
42.8400 31.004
42.8600 31.532
42.8800 31.218
42.9000 31.324
42.9200 32.026
42.9400 30.992
42.9600 30.500
42.9800 31.462
43.0000 30.993
43.0200 31.821
43.0400 31.073
43.0600 31.271
43.0800 30.729
43.1000 30.888
43.1200 31.062
43.1400 29.981
43.1600 30.140
43.1800 31.228
43.2000 31.069
43.2200 30.730
43.2400 31.281
43.2600 30.900
43.2800 30.090
43.3000 30.754
43.3200 31.428
43.3400 30.529
43.3600 31.075
43.3800 30.809
43.4000 30.837
43.4200 30.711
43.4400 30.485
43.4600 31.363
43.4800 31.511
43.5000 31.537
43.5200 31.109
43.5400 31.374
43.5600 31.352
43.5800 31.678
43.6000 31.727
43.6200 31.794
43.6400 31.879
43.6600 30.872
43.6800 31.766
43.7000 31.873
43.7200 32.004
43.7400 32.185
43.7600 32.995
43.7800 32.205
43.8000 33.053
43.8200 32.825
43.8400 33.141
43.8600 32.944
43.8800 32.595
43.9000 33.215
43.9200 32.977
43.9400 34.437
43.9600 34.572
43.9800 34.845
44.0000 36.274
44.0200 37.807
44.0400 38.758
44.0600 43.614
44.0800 46.840
44.1000 52.391
44.1200 58.320
44.1400 61.734
44.1600 63.374
44.1800 62.443
44.2000 61.450
44.2200 58.313
44.2400 56.130
44.2600 54.301
44.2800 52.338
44.3000 48.955
44.3200 44.712
44.3400 41.174
44.3600 39.180
44.3800 38.041
44.4000 35.708
44.4200 34.684
44.4400 33.724
44.4600 33.832
44.4800 32.248
44.5000 33.269
44.5200 32.738
44.5400 33.205
44.5600 33.467
44.5800 32.309
44.6000 32.730
44.6200 33.310
44.6400 33.121
44.6600 32.302
44.6800 32.352
44.7000 32.971
44.7200 32.997
44.7400 32.885
44.7600 32.772
44.7800 33.385
44.8000 34.491
44.8200 36.286
44.8400 40.692
44.8600 43.784
44.8800 41.616
44.9000 40.527
44.9200 39.875
44.9400 40.251
44.9600 41.798
44.9800 42.811
45.0000 42.231
45.0200 42.180
45.0400 41.664
45.0600 39.449
45.0800 39.801
45.1000 39.870
45.1200 40.080
45.1400 39.904
45.1600 39.407
45.1800 39.357
45.2000 39.466
45.2200 39.341
45.2400 39.436
45.2600 38.192
45.2800 38.711
45.3000 38.946
45.3200 38.236
45.3400 36.999
45.3600 36.864
45.3800 35.865
45.4000 35.857
45.4200 35.073
45.4400 34.892
45.4600 34.027
45.4800 34.439
45.5000 33.649
45.5200 32.875
45.5400 33.528
45.5600 33.200
45.5800 33.663
45.6000 33.632
45.6200 33.431
45.6400 32.462
45.6600 32.069
45.6800 32.697
45.7000 33.383
45.7200 32.685
45.7400 31.955
45.7600 32.732
45.7800 32.416
45.8000 32.419
45.8200 32.629
45.8400 32.685
45.8600 33.371
45.8800 33.008
45.9000 33.387
45.9200 32.025
45.9400 31.688
45.9600 31.997
45.9800 32.308
46.0000 32.296
46.0200 32.500
46.0400 32.708
46.0600 33.721
46.0800 34.023
46.1000 33.290
46.1200 32.157
46.1400 32.617
46.1600 32.839
46.1800 32.245
46.2000 33.374
46.2200 32.998
46.2400 32.472
46.2600 32.768
46.2800 33.058
46.3000 32.747
46.3200 32.879
46.3400 33.345
46.3600 32.608
46.3800 33.163
46.4000 32.565
46.4200 32.565
46.4400 33.086
46.4600 32.569
46.4800 32.421
46.5000 33.303
46.5200 32.265
46.5400 32.525
46.5600 32.931
46.5800 34.080
46.6000 33.335
46.6200 32.824
46.6400 32.674
