'Id: "" Comment: "" Operator: "Lab Manager" Anode: "Cu" Scantype: "Coupled TwoTheta/Theta" TimePerStep: "113.4655" X: "9999" Y: "9999" Z: "-2.700037" 
20.0000 8.070
20.0200 8.143
20.0400 8.472
20.0600 8.371
20.0800 8.076
20.1000 8.483
20.1200 8.376
20.1400 8.449
20.1600 8.010
20.1800 8.790
20.2000 8.420
20.2200 8.396
20.2400 8.391
20.2600 8.383
20.2800 8.299
20.3000 8.385
20.3200 8.322
20.3400 8.581
20.3600 8.623
20.3800 8.609
20.4000 7.995
20.4200 8.800
20.4400 8.677
20.4600 8.789
20.4800 8.802
20.5000 8.860
20.5200 8.511
20.5400 8.966
20.5600 8.648
20.5800 8.696
20.6000 8.354
20.6200 8.996
20.6400 8.699
20.6600 8.567
20.6800 8.677
20.7000 8.598
20.7200 8.244
20.7400 8.829
20.7600 8.820
20.7800 9.060
20.8000 8.912
20.8200 8.416
20.8400 8.623
20.8600 8.818
20.8800 8.529
20.9000 8.631
20.9200 8.607
20.9400 8.663
20.9600 8.784
20.9800 8.924
21.0000 9.017
21.0200 9.024
21.0400 8.991
21.0600 9.095
21.0800 9.340
21.1000 8.774
21.1200 8.492
21.1400 9.060
21.1600 8.808
21.1800 8.958
21.2000 8.944
21.2200 8.759
21.2400 8.971
21.2600 9.547
21.2800 9.126
21.3000 9.346
21.3200 8.998
21.3400 9.177
21.3600 9.079
21.3800 9.125
21.4000 9.116
21.4200 9.181
21.4400 9.222
21.4600 9.353
21.4800 9.327
21.5000 9.620
21.5200 9.035
21.5400 9.601
21.5600 9.428
21.5800 9.455
21.6000 9.516
21.6200 9.452
21.6400 9.514
21.6600 9.668
21.6800 8.966
21.7000 9.385
21.7200 9.022
21.7400 8.758
21.7600 9.488
21.7800 9.603
21.8000 9.713
21.8200 9.106
21.8400 9.208
21.8600 9.315
21.8800 9.490
21.9000 9.115
21.9200 9.229
21.9400 9.417
21.9600 9.845
21.9800 9.186
22.0000 9.060
22.0200 8.907
22.0400 9.777
22.0600 9.408
22.0800 9.558
22.1000 10.081
22.1200 9.711
22.1400 10.026
22.1600 9.661
22.1800 9.497
22.2000 9.664
22.2200 9.612
22.2400 9.615
22.2600 9.941
22.2800 9.761
22.3000 9.895
22.3200 9.834
22.3400 9.704
22.3600 10.166
22.3800 10.016
22.4000 9.748
22.4200 9.963
22.4400 9.719
22.4600 10.407
22.4800 9.716
22.5000 9.852
22.5200 9.486
22.5400 9.626
22.5600 9.899
22.5800 9.773
22.6000 9.733
22.6200 10.077
22.6400 10.327
22.6600 10.153
22.6800 10.641
22.7000 10.171
22.7200 10.097
22.7400 10.133
22.7600 9.964
22.7800 10.097
22.8000 10.294
22.8200 10.052
22.8400 9.874
22.8600 10.133
22.8800 10.181
22.9000 10.073
22.9200 10.377
22.9400 10.340
22.9600 10.289
22.9800 10.206
23.0000 9.763
23.0200 10.308
23.0400 10.802
23.0600 10.286
23.0800 10.521
23.1000 10.609
23.1200 10.398
23.1400 10.038
23.1600 10.844
23.1800 10.363
23.2000 10.467
23.2200 10.445
23.2400 10.315
23.2600 10.837
23.2800 10.308
23.3000 10.055
23.3200 10.175
23.3400 10.290
23.3600 10.433
23.3800 10.289
23.4000 10.880
23.4200 10.400
23.4400 10.263
23.4600 10.536
23.4800 10.768
23.5000 10.870
23.5200 9.971
23.5400 10.818
23.5600 11.197
23.5800 10.385
23.6000 10.161
23.6200 10.909
23.6400 10.701
23.6600 11.165
23.6800 10.761
23.7000 10.740
23.7200 10.701
23.7400 11.284
23.7600 10.901
23.7800 10.310
23.8000 10.473
23.8200 11.329
23.8400 10.775
23.8600 10.385
23.8800 10.923
23.9000 10.884
23.9200 11.148
23.9400 11.380
23.9600 10.447
23.9800 10.672
24.0000 10.776
24.0200 11.369
24.0400 11.102
24.0600 11.189
24.0800 11.068
24.1000 11.251
24.1200 11.109
24.1400 11.402
24.1600 11.893
24.1800 11.177
24.2000 11.265
24.2200 11.247
24.2400 10.976
24.2600 11.431
24.2800 11.136
24.3000 12.010
24.3200 11.517
24.3400 11.609
24.3600 11.216
24.3800 11.200
24.4000 11.156
24.4200 11.364
24.4400 11.251
24.4600 12.040
24.4800 11.008
24.5000 11.142
24.5200 11.563
24.5400 11.331
24.5600 11.708
24.5800 11.858
24.6000 11.218
24.6200 11.420
24.6400 11.757
24.6600 11.462
24.6800 11.464
24.7000 11.482
24.7200 11.354
24.7400 11.167
24.7600 11.422
24.7800 11.527
24.8000 11.284
24.8200 11.271
24.8400 11.378
24.8600 11.580
24.8800 11.157
24.9000 12.117
24.9200 11.794
24.9400 11.929
24.9600 11.589
24.9800 11.340
25.0000 11.864
25.0200 11.813
25.0400 11.525
25.0600 11.461
25.0800 11.530
25.1000 11.968
25.1200 11.655
25.1400 12.084
25.1600 11.537
25.1800 11.796
25.2000 11.795
25.2200 12.381
25.2400 12.181
25.2600 11.713
25.2800 11.765
25.3000 11.601
25.3200 11.839
25.3400 11.904
25.3600 12.342
25.3800 12.621
25.4000 12.461
25.4200 12.231
25.4400 12.295
25.4600 12.201
25.4800 11.692
25.5000 11.679
25.5200 12.531
25.5400 12.060
25.5600 12.042
25.5800 12.305
25.6000 11.851
25.6200 12.412
25.6400 12.074
25.6600 12.006
25.6800 12.160
25.7000 11.477
25.7200 12.193
25.7400 11.992
25.7600 12.355
25.7800 12.357
25.8000 12.460
25.8200 12.662
25.8400 12.344
25.8600 12.032
25.8800 12.832
25.9000 12.338
25.9200 12.286
25.9400 12.405
25.9600 12.302
25.9800 12.559
26.0000 12.761
26.0200 13.090
26.0400 12.492
26.0600 12.896
26.0800 13.087
26.1000 12.398
26.1200 12.454
26.1400 12.411
26.1600 12.393
26.1800 13.107
26.2000 12.306
26.2200 12.196
26.2400 13.160
26.2600 12.904
26.2800 13.246
26.3000 12.809
26.3200 12.499
26.3400 12.958
26.3600 12.639
26.3800 13.060
26.4000 12.543
26.4200 12.770
26.4400 12.826
26.4600 13.149
26.4800 13.347
26.5000 13.036
26.5200 12.850
26.5400 12.631
26.5600 12.705
26.5800 12.946
26.6000 13.039
26.6200 13.490
26.6400 13.011
26.6600 13.456
26.6800 13.199
26.7000 13.629
26.7200 13.142
26.7400 13.539
26.7600 12.950
26.7800 13.016
26.8000 13.065
26.8200 13.276
26.8400 13.634
26.8600 13.192
26.8800 13.028
26.9000 13.802
26.9200 13.271
26.9400 13.166
26.9600 13.371
26.9800 12.890
27.0000 12.704
27.0200 12.927
27.0400 12.986
27.0600 13.318
27.0800 13.147
27.1000 13.800
27.1200 13.387
27.1400 14.085
27.1600 13.518
27.1800 13.516
27.2000 13.362
27.2200 13.529
27.2400 13.648
27.2600 13.529
27.2800 14.175
27.3000 14.021
27.3200 13.424
27.3400 13.962
27.3600 13.519
27.3800 13.395
27.4000 13.727
27.4200 13.858
27.4400 14.030
27.4600 13.166
27.4800 13.338
27.5000 14.375
27.5200 13.718
27.5400 14.079
27.5600 13.603
27.5800 14.360
27.6000 14.370
27.6200 14.095
27.6400 14.063
27.6600 14.616
27.6800 14.087
27.7000 12.987
27.7200 13.706
27.7400 13.664
27.7600 14.112
27.7800 13.873
27.8000 14.167
27.8200 13.930
27.8400 14.330
27.8600 13.989
27.8800 14.157
27.9000 14.093
27.9200 13.841
27.9400 13.539
27.9600 13.779
27.9800 14.056
28.0000 14.237
28.0200 14.836
28.0400 14.383
28.0600 14.452
28.0800 14.358
28.1000 14.668
28.1200 14.525
28.1400 14.250
28.1600 14.357
28.1800 13.811
28.2000 14.384
28.2200 14.271
28.2400 14.211
28.2600 14.577
28.2800 14.745
28.3000 14.182
28.3200 14.679
28.3400 14.650
28.3600 14.928
28.3800 15.422
28.4000 14.635
28.4200 14.467
28.4400 14.789
28.4600 14.798
28.4800 14.866
28.5000 14.700
28.5200 14.759
28.5400 14.866
28.5600 15.026
28.5800 14.747
28.6000 14.458
28.6200 14.250
28.6400 15.076
28.6600 14.445
28.6800 14.973
28.7000 15.033
28.7200 15.130
28.7400 14.824
28.7600 15.208
28.7800 15.229
28.8000 14.880
28.8200 15.825
28.8400 14.831
28.8600 15.378
28.8800 14.629
28.9000 15.037
28.9200 15.241
28.9400 15.267
28.9600 14.952
28.9800 14.999
29.0000 15.543
29.0200 15.594
29.0400 15.098
29.0600 14.806
29.0800 15.251
29.1000 14.481
29.1200 14.835
29.1400 15.826
29.1600 15.292
29.1800 15.373
29.2000 15.403
29.2200 15.529
29.2400 15.889
29.2600 15.417
29.2800 15.592
29.3000 15.315
29.3200 15.187
29.3400 16.029
29.3600 15.351
29.3800 15.634
29.4000 15.296
29.4200 15.171
29.4400 15.581
29.4600 15.848
29.4800 15.924
29.5000 15.697
29.5200 15.154
29.5400 15.530
29.5600 15.036
29.5800 15.539
29.6000 16.053
29.6200 15.608
29.6400 15.844
29.6600 15.994
29.6800 15.932
29.7000 16.122
29.7200 16.254
29.7400 16.416
29.7600 16.277
29.7800 16.581
29.8000 16.320
29.8200 16.320
29.8400 16.448
29.8600 16.287
29.8800 16.138
29.9000 16.269
29.9200 15.969
29.9400 16.438
29.9600 16.932
29.9800 16.812
30.0000 16.311
30.0200 16.503
30.0400 16.370
30.0600 16.066
30.0800 15.730
30.1000 15.944
30.1200 15.944
30.1400 16.306
30.1600 16.851
30.1800 15.806
30.2000 16.489
30.2200 16.509
30.2400 15.954
30.2600 16.521
30.2800 16.113
30.3000 16.094
30.3200 16.686
30.3400 16.900
30.3600 16.560
30.3800 16.057
30.4000 16.202
30.4200 17.110
30.4400 17.110
30.4600 16.337
30.4800 16.249
30.5000 16.482
30.5200 16.991
30.5400 16.143
30.5600 16.889
30.5800 16.426
30.6000 16.538
30.6200 16.266
30.6400 16.688
30.6600 17.080
30.6800 17.506
30.7000 16.428
30.7200 16.939
30.7400 16.953
30.7600 17.284
30.7800 17.200
30.8000 16.991
30.8200 16.419
30.8400 16.556
30.8600 17.050
30.8800 16.026
30.9000 17.566
30.9200 17.176
30.9400 17.396
30.9600 17.712
30.9800 17.434
31.0000 16.975
31.0200 17.017
31.0400 17.320
31.0600 17.175
31.0800 16.241
31.1000 17.572
31.1200 17.394
31.1400 17.252
31.1600 17.245
31.1800 17.524
31.2000 17.014
31.2200 17.433
31.2400 17.571
31.2600 17.148
31.2800 17.596
31.3000 17.737
31.3200 17.857
31.3400 17.096
31.3600 17.188
31.3800 17.702
31.4000 17.819
31.4200 17.077
31.4400 17.120
31.4600 17.399
31.4800 18.293
31.5000 17.153
31.5200 17.455
31.5400 17.854
31.5600 17.851
31.5800 17.866
31.6000 18.091
31.6200 17.930
31.6400 17.716
31.6600 18.445
31.6800 18.465
31.7000 17.975
31.7200 17.698
31.7400 18.136
31.7600 17.984
31.7800 17.955
31.8000 17.737
31.8200 18.298
31.8400 17.944
31.8600 17.736
31.8800 18.454
31.9000 18.399
31.9200 18.060
31.9400 18.099
31.9600 17.570
31.9800 17.977
32.0000 18.289
32.0200 18.294
32.0400 18.316
32.0600 18.477
32.0800 17.844
32.1000 17.767
32.1200 17.938
32.1400 17.514
32.1600 17.866
32.1800 18.498
32.2000 18.851
32.2200 18.722
32.2400 18.031
32.2600 18.138
32.2800 18.251
32.3000 18.325
32.3200 18.970
32.3400 18.983
32.3600 19.274
32.3800 18.775
32.4000 18.638
32.4200 18.722
32.4400 18.910
32.4600 18.247
32.4800 18.613
32.5000 18.500
32.5200 18.856
32.5400 18.810
32.5600 19.086
32.5800 19.204
32.6000 18.967
32.6200 18.742
32.6400 18.664
32.6600 18.560
32.6800 18.749
32.7000 19.314
32.7200 18.801
32.7400 18.940
32.7600 18.471
32.7800 18.617
32.8000 18.891
32.8200 19.185
32.8400 18.995
32.8600 18.912
32.8800 18.855
32.9000 19.156
32.9200 19.002
32.9400 19.537
32.9600 19.783
32.9800 18.877
33.0000 18.672
33.0200 19.288
33.0400 18.935
33.0600 19.152
33.0800 19.580
33.1000 18.982
33.1200 19.253
33.1400 20.004
33.1600 19.452
33.1800 19.079
33.2000 19.070
33.2200 18.965
33.2400 18.996
33.2600 19.712
33.2800 19.930
33.3000 19.509
33.3200 18.948
33.3400 19.057
33.3600 19.380
33.3800 19.172
33.4000 19.399
33.4200 20.146
33.4400 19.503
33.4600 19.762
33.4800 19.335
33.5000 19.069
33.5200 19.277
33.5400 19.721
33.5600 19.465
33.5800 19.731
33.6000 20.307
33.6200 19.765
33.6400 20.092
33.6600 20.912
33.6800 20.157
33.7000 20.327
33.7200 20.076
33.7400 19.424
33.7600 20.411
33.7800 20.047
33.8000 19.772
33.8200 20.057
33.8400 20.023
33.8600 19.610
33.8800 20.103
33.9000 20.019
33.9200 19.775
33.9400 20.619
33.9600 20.023
33.9800 20.500
34.0000 20.152
34.0200 20.419
34.0400 20.044
34.0600 20.258
34.0800 20.481
34.1000 20.638
34.1200 20.340
34.1400 19.756
34.1600 20.391
34.1800 20.547
34.2000 20.579
34.2200 20.696
34.2400 21.119
34.2600 20.466
34.2800 20.660
34.3000 20.280
34.3200 20.520
34.3400 20.842
34.3600 20.380
34.3800 20.253
34.4000 21.365
34.4200 20.652
34.4400 20.848
34.4600 20.115
34.4800 20.971
34.5000 20.455
34.5200 20.345
34.5400 21.709
34.5600 20.892
34.5800 21.004
34.6000 20.907
34.6200 21.290
34.6400 21.317
34.6600 21.040
34.6800 20.842
34.7000 21.365
34.7200 21.585
34.7400 21.556
34.7600 21.113
34.7800 20.767
34.8000 21.030
34.8200 20.925
34.8400 21.314
34.8600 20.648
34.8800 21.504
34.9000 21.213
34.9200 20.840
34.9400 22.267
34.9600 21.491
34.9800 21.671
35.0000 22.055
35.0200 22.299
35.0400 22.491
35.0600 22.578
35.0800 22.476
35.1000 22.696
35.1200 21.959
35.1400 21.871
35.1600 21.900
35.1800 21.515
35.2000 22.180
35.2200 21.396
35.2400 22.286
35.2600 21.506
35.2800 22.266
35.3000 21.946
35.3200 22.090
35.3400 21.674
35.3600 21.754
35.3800 22.123
35.4000 21.497
35.4200 21.319
35.4400 21.537
35.4600 21.989
35.4800 21.180
35.5000 21.432
35.5200 21.849
35.5400 22.045
35.5600 21.511
35.5800 21.735
35.6000 22.180
35.6200 21.358
35.6400 21.850
35.6600 22.336
35.6800 22.526
35.7000 22.475
35.7200 22.531
35.7400 22.346
35.7600 21.444
35.7800 21.175
35.8000 22.518
35.8200 21.923
35.8400 22.238
35.8600 22.326
35.8800 21.621
35.9000 22.223
35.9200 22.251
35.9400 22.393
35.9600 21.970
35.9800 22.085
36.0000 22.785
36.0200 22.492
36.0400 22.189
36.0600 22.444
36.0800 22.466
36.1000 22.397
36.1200 22.318
36.1400 22.778
36.1600 23.338
36.1800 22.615
36.2000 22.583
36.2200 22.494
36.2400 22.710
36.2600 22.303
36.2800 22.856
36.3000 22.425
36.3200 22.263
36.3400 23.022
36.3600 22.613
36.3800 23.159
36.4000 23.068
36.4200 22.548
36.4400 23.011
36.4600 22.853
36.4800 23.081
36.5000 23.179
36.5200 22.964
36.5400 22.635
36.5600 23.500
36.5800 23.312
36.6000 23.402
36.6200 23.666
36.6400 23.813
36.6600 24.236
36.6800 23.852
36.7000 23.828
36.7200 24.068
36.7400 23.842
36.7600 23.553
36.7800 23.579
36.8000 23.618
36.8200 23.676
36.8400 23.676
36.8600 23.935
36.8800 23.700
36.9000 24.270
36.9200 24.679
36.9400 24.140
36.9600 23.461
36.9800 23.618
37.0000 24.295
37.0200 24.259
37.0400 24.498
37.0600 23.851
37.0800 24.400
37.1000 23.993
37.1200 24.495
37.1400 24.265
37.1600 24.490
37.1800 24.672
37.2000 24.586
37.2200 24.546
37.2400 24.875
37.2600 24.272
37.2800 24.067
37.3000 25.089
37.3200 24.609
37.3400 25.100
37.3600 24.571
37.3800 24.783
37.4000 24.207
37.4200 24.894
37.4400 24.664
37.4600 25.343
37.4800 24.259
37.5000 25.037
37.5200 24.767
37.5400 25.397
37.5600 25.201
37.5800 25.672
37.6000 25.733
37.6200 24.624
37.6400 25.410
37.6600 25.574
37.6800 25.945
37.7000 26.059
37.7200 25.236
37.7400 25.697
37.7600 25.983
37.7800 26.460
37.8000 25.600
37.8200 25.835
37.8400 25.784
37.8600 24.916
37.8800 25.882
37.9000 26.032
37.9200 26.356
37.9400 25.727
37.9600 25.790
37.9800 25.930
38.0000 25.699
38.0200 26.161
38.0400 25.789
38.0600 26.785
38.0800 25.976
38.1000 25.370
38.1200 26.283
38.1400 26.309
38.1600 26.586
38.1800 26.085
38.2000 26.778
38.2200 26.307
38.2400 25.671
38.2600 25.880
38.2800 26.366
38.3000 26.218
38.3200 26.163
38.3400 25.777
38.3600 27.078
38.3800 26.689
38.4000 26.486
38.4200 26.284
38.4400 26.644
38.4600 26.567
38.4800 26.703
38.5000 26.915
38.5200 27.167
38.5400 27.058
38.5600 26.379
38.5800 27.003
38.6000 26.186
38.6200 26.578
38.6400 26.539
38.6600 27.791
38.6800 27.381
38.7000 27.185
38.7200 27.221
38.7400 26.630
38.7600 26.292
38.7800 26.832
38.8000 26.335
38.8200 25.830
38.8400 27.569
38.8600 27.369
38.8800 26.884
38.9000 27.107
38.9200 27.187
38.9400 27.261
38.9600 27.751
38.9800 27.136
39.0000 27.367
39.0200 27.149
39.0400 27.308
39.0600 27.277
39.0800 26.769
39.1000 27.533
39.1200 28.716
39.1400 28.308
39.1600 27.489
39.1800 27.872
39.2000 27.773
39.2200 27.461
39.2400 27.606
39.2600 27.226
39.2800 27.119
39.3000 27.084
39.3200 27.669
39.3400 27.317
39.3600 28.383
39.3800 27.884
39.4000 27.317
39.4200 27.052
39.4400 28.512
39.4600 27.351
39.4800 27.889
39.5000 28.196
39.5200 29.062
39.5400 28.275
39.5600 28.012
39.5800 27.463
39.6000 27.949
39.6200 28.795
39.6400 28.130
39.6600 27.959
39.6800 28.703
39.7000 28.075
39.7200 28.335
39.7400 28.365
39.7600 28.223
39.7800 27.808
39.8000 28.650
39.8200 28.634
39.8400 29.178
39.8600 28.444
39.8800 27.824
39.9000 28.227
39.9200 28.034
39.9400 28.368
39.9600 28.052
39.9800 27.992
40.0000 28.005
40.0200 28.629
40.0400 27.704
40.0600 28.138
40.0800 28.220
40.1000 28.608
40.1200 28.274
40.1400 28.701
40.1600 29.491
40.1800 28.615
40.2000 28.801
40.2200 28.979
40.2400 28.646
40.2600 28.748
40.2800 28.433
40.3000 29.375
40.3200 28.535
40.3400 29.192
40.3600 29.274
40.3800 28.477
40.4000 28.187
40.4200 28.151
40.4400 28.835
40.4600 28.928
40.4800 28.770
40.5000 28.330
40.5200 29.367
40.5400 28.729
40.5600 28.843
40.5800 28.465
40.6000 28.777
40.6200 29.456
40.6400 29.103
40.6600 28.901
40.6800 29.588
40.7000 29.252
40.7200 28.447
40.7400 28.616
40.7600 29.229
40.7800 29.941
40.8000 29.077
40.8200 29.090
40.8400 30.094
40.8600 29.448
40.8800 28.769
40.9000 28.727
40.9200 29.102
40.9400 29.227
40.9600 29.665
40.9800 28.968
41.0000 29.674
41.0200 29.045
41.0400 30.156
41.0600 29.867
41.0800 29.082
41.1000 29.903
41.1200 30.530
41.1400 29.685
41.1600 29.446
41.1800 29.224
41.2000 29.391
41.2200 29.450
41.2400 29.239
41.2600 29.164
41.2800 29.791
41.3000 30.213
41.3200 30.391
41.3400 29.707
41.3600 29.629
41.3800 29.818
41.4000 28.691
41.4200 29.762
41.4400 30.021
41.4600 29.361
41.4800 29.782
41.5000 30.111
41.5200 30.399
41.5400 30.183
41.5600 30.508
41.5800 29.847
41.6000 29.234
41.6200 29.938
41.6400 30.174
41.6600 30.161
41.6800 29.615
41.7000 30.032
41.7200 29.700
41.7400 29.670
41.7600 29.521
41.7800 30.598
41.8000 29.881
41.8200 29.305
41.8400 29.481
41.8600 30.884
41.8800 30.407
41.9000 29.673
41.9200 29.829
41.9400 30.538
41.9600 30.453
41.9800 29.753
42.0000 29.788
42.0200 30.620
42.0400 30.042
42.0600 30.037
42.0800 29.478
42.1000 30.644
42.1200 30.097
42.1400 29.618
42.1600 29.908
42.1800 30.701
42.2000 30.522
42.2200 30.789
42.2400 30.912
42.2600 31.086
42.2800 30.315
42.3000 30.532
42.3200 30.436
42.3400 30.652
42.3600 30.933
42.3800 30.059
42.4000 30.610
42.4200 31.316
42.4400 30.905
42.4600 31.061
42.4800 31.150
42.5000 30.696
42.5200 31.121
42.5400 31.548
42.5600 32.136
42.5800 32.021
42.6000 30.975
42.6200 30.736
42.6400 31.042
42.6600 31.725
42.6800 32.371
42.7000 31.341
42.7200 31.501
42.7400 31.062
42.7600 32.031
42.7800 31.303
42.8000 31.241
42.8200 31.326
42.8400 31.047
42.8600 30.732
42.8800 30.891
42.9000 30.926
42.9200 30.084
42.9400 30.456
42.9600 31.206
42.9800 31.175
43.0000 31.805
43.0200 30.558
43.0400 31.294
43.0600 31.791
43.0800 31.147
43.1000 32.446
43.1200 32.051
43.1400 32.230
43.1600 31.663
43.1800 31.510
43.2000 31.426
43.2200 31.566
43.2400 31.482
43.2600 31.506
43.2800 31.711
43.3000 31.437
43.3200 31.584
43.3400 31.860
43.3600 32.391
43.3800 31.918
43.4000 30.868
43.4200 30.944
43.4400 30.623
43.4600 30.790
43.4800 31.971
43.5000 31.884
43.5200 31.527
43.5400 31.266
43.5600 31.856
43.5800 32.510
43.6000 32.725
43.6200 32.635
43.6400 32.750
43.6600 32.432
43.6800 32.830
43.7000 32.902
43.7200 32.486
43.7400 32.103
43.7600 32.316
43.7800 34.052
43.8000 32.696
43.8200 32.953
43.8400 33.526
43.8600 33.413
43.8800 34.198
43.9000 33.648
43.9200 33.881
43.9400 34.210
43.9600 34.789
43.9800 35.725
44.0000 35.242
44.0200 37.310
44.0400 38.679
44.0600 43.527
44.0800 46.687
44.1000 53.327
44.1200 58.427
44.1400 63.299
44.1600 64.715
44.1800 64.976
44.2000 62.292
44.2200 58.893
44.2400 55.429
44.2600 55.526
44.2800 53.404
44.3000 50.188
44.3200 46.802
44.3400 42.798
44.3600 39.627
44.3800 38.663
44.4000 37.261
44.4200 35.828
44.4400 34.892
44.4600 34.648
44.4800 34.494
44.5000 33.226
44.5200 32.970
44.5400 32.737
44.5600 32.302
44.5800 32.859
44.6000 32.876
44.6200 32.335
44.6400 32.008
44.6600 32.598
44.6800 32.967
44.7000 33.002
44.7200 32.401
44.7400 33.619
44.7600 32.729
44.7800 33.023
44.8000 34.513
44.8200 34.724
44.8400 37.675
44.8600 41.916
44.8800 42.887
44.9000 41.812
44.9200 38.516
44.9400 39.088
44.9600 40.195
44.9800 41.540
45.0000 42.336
45.0200 41.184
45.0400 39.629
45.0600 39.466
45.0800 40.318
45.1000 38.425
45.1200 38.918
45.1400 39.682
45.1600 38.704
45.1800 39.011
45.2000 40.139
45.2200 38.842
45.2400 38.505
45.2600 37.636
45.2800 38.480
45.3000 37.657
45.3200 37.158
45.3400 37.397
45.3600 36.724
45.3800 35.577
45.4000 35.487
45.4200 35.931
45.4400 35.696
45.4600 34.566
45.4800 35.055
45.5000 34.023
45.5200 33.457
45.5400 33.921
45.5600 33.673
45.5800 33.350
45.6000 32.770
45.6200 32.658
45.6400 33.222
45.6600 32.782
45.6800 32.845
45.7000 32.784
45.7200 32.365
45.7400 32.856
45.7600 33.467
45.7800 33.446
45.8000 32.536
45.8200 33.216
45.8400 31.891
45.8600 33.040
45.8800 33.019
45.9000 33.606
45.9200 33.265
45.9400 33.078
45.9600 33.543
45.9800 33.644
46.0000 33.144
46.0200 32.497
46.0400 32.758
46.0600 33.035
46.0800 32.535
46.1000 32.568
46.1200 33.506
46.1400 32.679
46.1600 33.744
46.1800 33.192
46.2000 32.520
46.2200 33.596
46.2400 33.423
46.2600 32.872
46.2800 33.430
46.3000 33.675
46.3200 33.331
46.3400 32.548
46.3600 33.961
46.3800 33.307
46.4000 33.303
46.4200 33.413
46.4400 34.370
46.4600 33.228
46.4800 33.018
46.5000 33.100
46.5200 34.020
46.5400 32.485
46.5600 32.880
46.5800 32.761
46.6000 33.182
