'Id: "" Comment: "" Operator: "Lab Manager" Anode: "Cu" Scantype: "Coupled TwoTheta/Theta" TimePerStep: "113.4655" X: "9999" Y: "9999" Z: "-2.700037" 
20.0000 8.256
20.0200 7.977
20.0400 7.839
20.0600 8.180
20.0800 8.051
20.1000 7.959
20.1200 7.864
20.1400 8.180
20.1600 8.255
20.1800 8.189
20.2000 8.095
20.2200 7.719
20.2400 7.938
20.2600 7.997
20.2800 8.094
20.3000 8.098
20.3200 8.260
20.3400 8.430
20.3600 8.764
20.3800 8.026
20.4000 8.200
20.4200 8.391
20.4400 8.462
20.4600 8.452
20.4800 8.468
20.5000 8.398
20.5200 8.608
20.5400 8.508
20.5600 8.593
20.5800 8.550
20.6000 8.584
20.6200 8.119
20.6400 8.098
20.6600 8.490
20.6800 8.477
20.7000 8.901
20.7200 8.564
20.7400 8.374
20.7600 8.364
20.7800 8.403
20.8000 8.832
20.8200 8.605
20.8400 8.241
20.8600 8.676
20.8800 8.414
20.9000 9.140
20.9200 8.599
20.9400 8.826
20.9600 8.904
20.9800 8.695
21.0000 8.750
21.0200 8.667
21.0400 8.628
21.0600 9.015
21.0800 8.464
21.1000 8.684
21.1200 9.118
21.1400 8.387
21.1600 8.801
21.1800 8.941
21.2000 9.040
21.2200 8.841
21.2400 9.207
21.2600 8.697
21.2800 8.916
21.3000 8.904
21.3200 9.054
21.3400 9.246
21.3600 8.876
21.3800 8.685
21.4000 9.026
21.4200 8.545
21.4400 9.256
21.4600 9.580
21.4800 9.223
21.5000 9.226
21.5200 8.995
21.5400 9.025
21.5600 9.000
21.5800 8.908
21.6000 9.150
21.6200 9.367
21.6400 9.246
21.6600 9.354
21.6800 8.441
21.7000 9.077
21.7200 9.324
21.7400 8.935
21.7600 8.696
21.7800 9.028
21.8000 9.400
21.8200 9.051
21.8400 9.331
21.8600 9.084
21.8800 9.573
21.9000 9.053
21.9200 9.198
21.9400 9.407
21.9600 9.551
21.9800 9.776
22.0000 9.947
22.0200 9.311
22.0400 9.364
22.0600 9.496
22.0800 8.997
22.1000 9.783
22.1200 9.543
22.1400 9.810
22.1600 9.882
22.1800 9.588
22.2000 9.563
22.2200 9.435
22.2400 9.667
22.2600 9.408
22.2800 9.495
22.3000 9.571
22.3200 10.085
22.3400 9.946
22.3600 9.506
22.3800 9.822
22.4000 9.590
22.4200 10.018
22.4400 10.141
22.4600 9.463
22.4800 9.734
22.5000 9.738
22.5200 10.212
22.5400 9.315
22.5600 9.822
22.5800 9.472
22.6000 9.911
22.6200 10.211
22.6400 9.805
22.6600 9.932
22.6800 10.261
22.7000 9.931
22.7200 10.208
22.7400 10.047
22.7600 10.036
22.7800 9.545
22.8000 9.470
22.8200 10.402
22.8400 9.973
22.8600 9.969
22.8800 10.141
22.9000 10.110
22.9200 9.920
22.9400 10.145
22.9600 9.830
22.9800 10.203
23.0000 10.071
23.0200 10.028
23.0400 10.002
23.0600 10.389
23.0800 10.031
23.1000 10.092
23.1200 10.273
23.1400 10.190
23.1600 10.077
23.1800 10.568
23.2000 10.124
23.2200 10.470
23.2400 10.187
23.2600 10.303
23.2800 10.735
23.3000 10.252
23.3200 10.004
23.3400 10.395
23.3600 10.380
23.3800 9.970
23.4000 10.489
23.4200 10.517
23.4400 10.779
23.4600 9.969
23.4800 9.878
23.5000 10.630
23.5200 10.434
23.5400 10.017
23.5600 10.264
23.5800 10.013
23.6000 10.281
23.6200 10.819
23.6400 10.718
23.6600 10.656
23.6800 10.581
23.7000 10.558
23.7200 10.544
23.7400 10.663
23.7600 10.570
23.7800 10.563
23.8000 10.651
23.8200 10.729
23.8400 10.720
23.8600 10.741
23.8800 10.633
23.9000 10.543
23.9200 10.341
23.9400 10.328
23.9600 10.357
23.9800 10.881
24.0000 10.697
24.0200 10.698
24.0400 10.645
24.0600 10.847
24.0800 11.111
24.1000 11.038
24.1200 11.137
24.1400 10.831
24.1600 11.093
24.1800 11.413
24.2000 10.918
24.2200 11.062
24.2400 11.030
24.2600 10.260
24.2800 11.504
24.3000 11.221
24.3200 10.920
24.3400 10.929
24.3600 10.704
24.3800 10.483
24.4000 11.375
24.4200 10.609
24.4400 11.417
24.4600 11.456
24.4800 10.760
24.5000 10.702
24.5200 11.416
24.5400 11.201
24.5600 11.338
24.5800 11.177
24.6000 11.200
24.6200 11.455
24.6400 11.066
24.6600 11.183
24.6800 11.179
24.7000 11.751
24.7200 11.604
24.7400 11.764
24.7600 11.845
24.7800 11.279
24.8000 11.193
24.8200 11.215
24.8400 11.582
24.8600 11.787
24.8800 11.530
24.9000 11.547
24.9200 11.777
24.9400 11.334
24.9600 11.756
24.9800 11.423
25.0000 11.271
25.0200 12.470
25.0400 11.888
25.0600 11.302
25.0800 11.127
25.1000 12.094
25.1200 11.658
25.1400 11.776
25.1600 11.620
25.1800 11.491
25.2000 11.872
25.2200 11.876
25.2400 11.619
25.2600 11.783
25.2800 11.761
25.3000 11.792
25.3200 12.136
25.3400 11.751
25.3600 11.751
25.3800 11.598
25.4000 11.728
25.4200 11.855
25.4400 11.577
25.4600 11.966
25.4800 12.069
25.5000 12.374
25.5200 12.132
25.5400 11.841
25.5600 12.085
25.5800 12.238
25.6000 11.875
25.6200 11.642
25.6400 11.491
25.6600 12.078
25.6800 12.408
25.7000 12.327
25.7200 12.363
25.7400 12.606
25.7600 11.719
25.7800 12.264
25.8000 12.171
25.8200 12.154
25.8400 12.049
25.8600 12.299
25.8800 11.804
25.9000 11.668
25.9200 11.837
25.9400 12.507
25.9600 12.472
25.9800 12.184
26.0000 12.755
26.0200 12.253
26.0400 12.018
26.0600 12.528
26.0800 12.294
26.1000 12.327
26.1200 12.526
26.1400 12.245
26.1600 11.889
26.1800 12.654
26.2000 12.243
26.2200 12.547
26.2400 12.432
26.2600 13.007
26.2800 12.632
26.3000 12.271
26.3200 12.906
26.3400 12.939
26.3600 12.577
26.3800 12.566
26.4000 12.632
26.4200 13.179
26.4400 12.739
26.4600 12.909
26.4800 12.970
26.5000 12.918
26.5200 12.457
26.5400 12.464
26.5600 12.605
26.5800 12.564
26.6000 12.597
26.6200 13.126
26.6400 13.225
26.6600 13.026
26.6800 12.749
26.7000 12.357
26.7200 12.582
26.7400 12.601
26.7600 13.037
26.7800 13.280
26.8000 13.162
26.8200 13.122
26.8400 13.253
26.8600 13.157
26.8800 13.522
26.9000 13.310
26.9200 13.611
26.9400 13.314
26.9600 13.442
26.9800 13.473
27.0000 13.627
27.0200 13.478
27.0400 13.257
27.0600 13.501
27.0800 13.390
27.1000 13.140
27.1200 12.872
27.1400 13.378
27.1600 13.546
27.1800 12.947
27.2000 13.627
27.2200 13.681
27.2400 14.081
27.2600 13.089
27.2800 13.631
27.3000 13.440
27.3200 13.417
27.3400 13.447
27.3600 12.972
27.3800 13.497
27.4000 13.309
27.4200 13.200
27.4400 13.558
27.4600 13.745
27.4800 13.903
27.5000 13.993
27.5200 13.328
27.5400 13.522
27.5600 13.334
27.5800 13.469
27.6000 13.698
27.6200 13.646
27.6400 13.572
27.6600 13.273
27.6800 13.444
27.7000 13.423
27.7200 13.640
27.7400 13.487
27.7600 13.907
27.7800 14.076
27.8000 13.864
27.8200 13.608
27.8400 13.829
27.8600 13.897
27.8800 13.879
27.9000 14.476
27.9200 13.110
27.9400 13.698
27.9600 14.141
27.9800 14.084
28.0000 14.085
28.0200 13.697
28.0400 14.319
28.0600 13.930
28.0800 14.204
28.1000 14.473
28.1200 14.216
28.1400 14.052
28.1600 14.739
28.1800 14.068
28.2000 13.831
28.2200 14.178
28.2400 14.189
28.2600 14.544
28.2800 14.122
28.3000 13.529
28.3200 14.548
28.3400 14.360
28.3600 14.418
28.3800 14.443
28.4000 14.309
28.4200 14.550
28.4400 14.504
28.4600 14.550
28.4800 14.034
28.5000 14.313
28.5200 14.243
28.5400 14.792
28.5600 14.389
28.5800 15.039
28.6000 15.005
28.6200 14.633
28.6400 14.704
28.6600 14.603
28.6800 14.627
28.7000 14.776
28.7200 14.783
28.7400 14.501
28.7600 14.887
28.7800 14.730
28.8000 14.987
28.8200 14.615
28.8400 14.068
28.8600 14.796
28.8800 14.288
28.9000 14.751
28.9200 14.661
28.9400 15.148
28.9600 14.469
28.9800 14.424
29.0000 15.462
29.0200 15.078
29.0400 15.332
29.0600 15.150
29.0800 14.825
29.1000 14.980
29.1200 14.655
29.1400 14.842
29.1600 15.016
29.1800 15.256
29.2000 14.823
29.2200 15.280
29.2400 15.076
29.2600 15.419
29.2800 14.550
29.3000 15.180
29.3200 14.868
29.3400 15.039
29.3600 14.909
29.3800 14.918
29.4000 15.499
29.4200 15.227
29.4400 15.557
29.4600 14.819
29.4800 15.652
29.5000 15.330
29.5200 16.034
29.5400 15.277
29.5600 15.219
29.5800 15.704
29.6000 15.587
29.6200 15.892
29.6400 16.525
29.6600 16.329
29.6800 15.560
29.7000 15.666
29.7200 16.446
29.7400 16.945
29.7600 16.477
29.7800 16.661
29.8000 16.057
29.8200 16.115
29.8400 15.926
29.8600 15.987
29.8800 15.296
29.9000 15.665
29.9200 16.151
29.9400 15.624
29.9600 16.026
29.9800 15.782
30.0000 15.873
30.0200 16.356
30.0400 16.252
30.0600 16.514
30.0800 16.680
30.1000 16.622
30.1200 15.776
30.1400 16.427
30.1600 16.299
30.1800 16.037
30.2000 16.310
30.2200 15.405
30.2400 16.130
30.2600 16.283
30.2800 16.260
30.3000 16.449
30.3200 16.251
30.3400 16.255
30.3600 15.850
30.3800 16.057
30.4000 16.263
30.4200 16.347
30.4400 16.228
30.4600 15.700
30.4800 16.790
30.5000 16.562
30.5200 16.359
30.5400 16.240
30.5600 16.024
30.5800 16.351
30.6000 16.255
30.6200 16.719
30.6400 16.268
30.6600 15.891
30.6800 17.126
30.7000 16.524
30.7200 16.645
30.7400 16.525
30.7600 16.541
30.7800 16.506
30.8000 16.864
30.8200 16.604
30.8400 16.814
30.8600 16.853
30.8800 17.118
30.9000 17.341
30.9200 17.276
30.9400 16.877
30.9600 16.795
30.9800 16.673
31.0000 16.370
31.0200 16.530
31.0400 16.658
31.0600 18.117
31.0800 16.946
31.1000 17.171
31.1200 16.975
31.1400 16.839
31.1600 16.776
31.1800 16.871
31.2000 16.558
31.2200 16.981
31.2400 17.124
31.2600 17.531
31.2800 17.475
31.3000 16.785
31.3200 17.105
31.3400 17.411
31.3600 17.106
31.3800 16.651
31.4000 17.445
31.4200 16.999
31.4400 17.366
31.4600 17.450
31.4800 16.916
31.5000 16.579
31.5200 17.354
31.5400 17.092
31.5600 17.260
31.5800 17.005
31.6000 17.035
31.6200 17.019
31.6400 17.310
31.6600 17.329
31.6800 17.187
31.7000 16.935
31.7200 17.989
31.7400 17.718
31.7600 17.488
31.7800 17.249
31.8000 17.782
31.8200 17.659
31.8400 18.020
31.8600 17.441
31.8800 17.601
31.9000 17.888
31.9200 18.228
31.9400 17.315
31.9600 17.567
31.9800 18.349
32.0000 17.753
32.0200 17.737
32.0400 17.891
32.0600 17.681
32.0800 17.502
32.1000 17.862
32.1200 18.180
32.1400 17.900
32.1600 17.925
32.1800 17.861
32.2000 17.884
32.2200 18.187
32.2400 18.171
32.2600 18.248
32.2800 18.227
32.3000 18.399
32.3200 17.959
32.3400 18.345
32.3600 18.407
32.3800 18.970
32.4000 18.102
32.4200 18.356
32.4400 17.741
32.4600 18.485
32.4800 18.242
32.5000 18.074
32.5200 18.215
32.5400 18.341
32.5600 18.475
32.5800 18.372
32.6000 18.659
32.6200 18.410
32.6400 18.463
32.6600 18.853
32.6800 18.495
32.7000 18.241
32.7200 19.063
32.7400 18.685
32.7600 18.305
32.7800 18.602
32.8000 18.830
32.8200 19.389
32.8400 18.925
32.8600 18.899
32.8800 18.471
32.9000 18.680
32.9200 18.818
32.9400 18.891
32.9600 18.881
32.9800 19.426
33.0000 18.740
33.0200 19.734
33.0400 19.145
33.0600 19.204
33.0800 18.670
33.1000 18.333
33.1200 18.587
33.1400 19.015
33.1600 18.738
33.1800 19.086
33.2000 19.189
33.2200 19.506
33.2400 18.899
33.2600 19.232
33.2800 19.242
33.3000 19.182
33.3200 19.306
33.3400 19.283
33.3600 18.712
33.3800 18.380
33.4000 19.327
33.4200 19.803
33.4400 18.977
33.4600 19.043
33.4800 18.885
33.5000 19.170
33.5200 19.676
33.5400 19.709
33.5600 19.518
33.5800 19.178
33.6000 19.233
33.6200 19.390
33.6400 18.923
33.6600 19.731
33.6800 19.352
33.7000 20.048
33.7200 19.902
33.7400 19.793
33.7600 20.319
33.7800 20.576
33.8000 19.989
33.8200 19.974
33.8400 19.608
33.8600 19.724
33.8800 19.129
33.9000 19.522
33.9200 19.909
33.9400 19.471
33.9600 20.044
33.9800 20.298
34.0000 20.234
34.0200 20.653
34.0400 20.034
34.0600 19.892
34.0800 19.886
34.1000 19.952
34.1200 19.901
34.1400 19.979
34.1600 19.607
34.1800 19.861
34.2000 19.911
34.2200 19.573
34.2400 20.608
34.2600 20.333
34.2800 20.507
34.3000 20.857
34.3200 20.406
34.3400 20.497
34.3600 20.616
34.3800 19.983
34.4000 20.652
34.4200 20.009
34.4400 20.662
34.4600 20.382
34.4800 20.813
34.5000 20.860
34.5200 20.717
34.5400 20.953
34.5600 20.338
34.5800 20.721
34.6000 20.891
34.6200 21.034
34.6400 20.341
34.6600 20.690
34.6800 20.716
34.7000 20.495
34.7200 20.717
34.7400 21.113
34.7600 21.140
34.7800 20.751
34.8000 20.418
34.8200 20.967
34.8400 21.993
34.8600 22.003
34.8800 22.175
34.9000 21.975
34.9200 21.713
34.9400 22.074
34.9600 22.384
34.9800 22.494
35.0000 22.895
35.0200 22.858
35.0400 22.715
35.0600 22.626
35.0800 22.466
35.1000 21.962
35.1200 22.366
35.1400 21.590
35.1600 22.277
35.1800 21.493
35.2000 21.472
35.2200 21.811
35.2400 21.898
35.2600 21.418
35.2800 21.944
35.3000 21.614
35.3200 21.604
35.3400 21.169
35.3600 21.019
35.3800 22.597
35.4000 21.405
35.4200 21.424
35.4400 21.765
35.4600 22.151
35.4800 21.424
35.5000 21.616
35.5200 21.261
35.5400 21.843
35.5600 21.503
35.5800 21.885
35.6000 21.840
35.6200 21.804
35.6400 22.028
35.6600 21.544
35.6800 21.963
35.7000 21.994
35.7200 21.814
35.7400 21.436
35.7600 21.365
35.7800 22.058
35.8000 21.718
35.8200 21.776
35.8400 22.223
35.8600 21.713
35.8800 22.177
35.9000 21.583
35.9200 21.770
35.9400 22.061
35.9600 22.332
35.9800 21.994
36.0000 21.909
36.0200 21.402
36.0400 22.192
36.0600 22.285
36.0800 22.332
36.1000 21.774
36.1200 21.676
36.1400 21.997
36.1600 23.042
36.1800 22.824
36.2000 22.025
36.2200 22.838
36.2400 22.286
36.2600 22.125
36.2800 22.155
36.3000 22.252
36.3200 22.074
36.3400 22.059
36.3600 22.313
36.3800 22.496
36.4000 23.028
36.4200 23.465
36.4400 22.788
36.4600 22.842
36.4800 22.913
36.5000 22.581
36.5200 23.475
36.5400 22.973
36.5600 22.160
36.5800 22.642
36.6000 22.421
36.6200 23.053
36.6400 23.233
36.6600 22.789
36.6800 23.577
36.7000 23.598
36.7200 22.661
36.7400 23.221
36.7600 22.970
36.7800 24.179
36.8000 23.487
36.8200 23.826
36.8400 23.487
36.8600 23.357
36.8800 23.642
36.9000 23.232
36.9200 23.350
36.9400 24.665
36.9600 24.137
36.9800 24.300
37.0000 23.576
37.0200 23.361
37.0400 23.480
37.0600 23.537
37.0800 23.633
37.1000 24.489
37.1200 23.820
37.1400 24.053
37.1600 23.869
37.1800 23.902
37.2000 23.624
37.2200 23.752
37.2400 23.892
37.2600 23.738
37.2800 23.894
37.3000 23.915
37.3200 24.317
37.3400 24.802
37.3600 25.624
37.3800 24.522
37.4000 25.364
37.4200 24.664
37.4400 25.219
37.4600 24.887
37.4800 24.736
37.5000 25.158
37.5200 24.529
37.5400 24.422
37.5600 25.259
37.5800 24.751
37.6000 24.141
37.6200 23.714
37.6400 25.024
37.6600 25.162
37.6800 25.531
37.7000 24.206
37.7200 24.580
37.7400 25.207
37.7600 24.414
37.7800 25.197
37.8000 24.720
37.8200 24.549
37.8400 25.482
37.8600 25.819
37.8800 25.005
37.9000 25.170
37.9200 25.820
37.9400 25.241
37.9600 25.588
37.9800 25.309
38.0000 25.475
38.0200 25.490
38.0400 25.004
38.0600 24.715
38.0800 25.261
38.1000 25.344
38.1200 25.612
38.1400 25.645
38.1600 25.696
38.1800 25.300
38.2000 25.810
38.2200 25.479
38.2400 25.422
38.2600 25.710
38.2800 26.124
38.3000 26.477
38.3200 25.194
38.3400 25.477
38.3600 26.469
38.3800 25.565
38.4000 25.605
38.4200 24.785
38.4400 26.240
38.4600 26.555
38.4800 25.888
38.5000 26.265
38.5200 26.732
38.5400 26.774
38.5600 26.339
38.5800 26.223
38.6000 26.407
38.6200 27.062
38.6400 26.408
38.6600 25.855
38.6800 25.321
38.7000 27.028
38.7200 26.989
38.7400 26.195
38.7600 26.884
38.7800 26.737
38.8000 26.856
38.8200 26.248
38.8400 26.297
38.8600 26.646
38.8800 26.185
38.9000 26.226
38.9200 26.868
38.9400 27.092
38.9600 26.877
38.9800 27.021
39.0000 26.961
39.0200 27.090
39.0400 26.932
39.0600 26.592
39.0800 26.511
39.1000 26.740
39.1200 26.749
39.1400 27.098
39.1600 26.994
39.1800 27.607
39.2000 26.584
39.2200 26.718
39.2400 27.220
39.2600 27.278
39.2800 27.195
39.3000 27.462
39.3200 26.560
39.3400 27.476
39.3600 28.071
39.3800 27.768
39.4000 27.437
39.4200 27.392
39.4400 27.279
39.4600 26.976
39.4800 27.464
39.5000 27.432
39.5200 27.460
39.5400 27.386
39.5600 27.845
39.5800 27.939
39.6000 27.964
39.6200 28.019
39.6400 28.618
39.6600 27.718
39.6800 27.855
39.7000 27.771
39.7200 27.408
39.7400 27.528
39.7600 27.496
39.7800 27.748
39.8000 27.436
39.8200 27.395
39.8400 27.714
39.8600 27.923
39.8800 27.526
39.9000 27.390
39.9200 27.452
39.9400 27.241
39.9600 28.535
39.9800 27.285
40.0000 27.503
40.0200 27.329
40.0400 27.799
40.0600 27.476
40.0800 27.828
40.1000 27.076
40.1200 27.627
40.1400 27.928
40.1600 27.765
40.1800 28.543
40.2000 27.625
40.2200 28.195
40.2400 27.750
40.2600 27.300
40.2800 28.108
40.3000 29.044
40.3200 29.598
40.3400 28.206
40.3600 28.289
40.3800 28.510
40.4000 28.069
40.4200 28.373
40.4400 28.724
40.4600 28.399
40.4800 29.102
40.5000 28.952
40.5200 28.698
40.5400 28.786
40.5600 28.879
40.5800 27.887
40.6000 29.325
40.6200 28.035
40.6400 28.118
40.6600 27.949
40.6800 28.218
40.7000 28.532
40.7200 28.376
40.7400 29.413
40.7600 29.249
40.7800 29.055
40.8000 29.256
40.8200 29.425
40.8400 29.084
40.8600 28.455
40.8800 28.685
40.9000 27.964
40.9200 27.901
40.9400 28.254
40.9600 28.816
40.9800 28.565
41.0000 29.150
41.0200 28.794
41.0400 28.721
41.0600 28.927
41.0800 29.687
41.1000 28.811
41.1200 29.260
41.1400 28.713
41.1600 29.339
41.1800 28.207
41.2000 29.101
41.2200 29.729
41.2400 29.719
41.2600 29.012
41.2800 29.516
41.3000 29.055
41.3200 28.757
41.3400 29.511
41.3600 29.907
41.3800 30.082
41.4000 29.389
41.4200 29.127
41.4400 28.264
41.4600 28.834
41.4800 28.915
41.5000 29.465
41.5200 29.173
41.5400 29.651
41.5600 29.577
41.5800 30.038
41.6000 29.513
41.6200 29.198
41.6400 28.722
41.6600 30.103
41.6800 30.039
41.7000 29.291
41.7200 29.027
41.7400 29.818
41.7600 29.869
41.7800 29.566
41.8000 29.524
41.8200 29.586
41.8400 29.052
41.8600 29.909
41.8800 30.141
41.9000 30.228
41.9200 30.033
41.9400 29.767
41.9600 29.812
41.9800 29.573
42.0000 29.557
42.0200 30.326
42.0400 29.784
42.0600 29.559
42.0800 29.672
42.1000 30.245
42.1200 30.486
42.1400 30.042
42.1600 30.028
42.1800 30.388
42.2000 30.334
42.2200 30.274
42.2400 30.261
42.2600 30.959
42.2800 30.482
42.3000 29.680
42.3200 31.137
42.3400 30.452
42.3600 30.393
42.3800 30.582
42.4000 30.876
42.4200 30.842
42.4400 31.030
42.4600 31.562
42.4800 30.401
42.5000 31.575
42.5200 32.598
42.5400 31.808
42.5600 31.945
42.5800 32.110
42.6000 31.018
42.6200 31.353
42.6400 31.254
42.6600 31.474
42.6800 31.128
42.7000 31.612
42.7200 30.817
42.7400 31.560
42.7600 30.995
42.7800 30.750
42.8000 30.416
42.8200 30.896
42.8400 30.474
42.8600 31.426
42.8800 30.563
42.9000 30.047
42.9200 29.721
42.9400 29.919
42.9600 30.885
42.9800 30.359
43.0000 30.588
43.0200 30.715
43.0400 30.405
43.0600 30.375
43.0800 30.778
43.1000 31.440
43.1200 30.902
43.1400 31.265
43.1600 30.480
43.1800 31.795
43.2000 31.704
43.2200 31.368
43.2400 30.569
43.2600 30.424
43.2800 30.265
43.3000 30.804
43.3200 30.425
43.3400 30.513
43.3600 31.098
43.3800 31.026
43.4000 31.053
43.4200 30.401
43.4400 30.691
43.4600 31.767
43.4800 32.161
43.5000 30.811
43.5200 31.857
43.5400 32.548
43.5600 31.260
43.5800 32.381
43.6000 31.466
43.6200 31.851
43.6400 31.547
43.6600 32.584
43.6800 32.672
43.7000 32.135
43.7200 32.407
43.7400 33.032
43.7600 33.538
43.7800 32.013
43.8000 32.828
43.8200 33.305
43.8400 32.268
43.8600 32.414
43.8800 32.348
43.9000 33.745
43.9200 33.461
43.9400 33.616
43.9600 34.216
43.9800 35.395
44.0000 36.475
44.0200 37.672
44.0400 40.557
44.0600 43.657
44.0800 47.652
44.1000 53.331
44.1200 59.021
44.1400 62.307
44.1600 63.071
44.1800 61.066
44.2000 60.088
44.2200 56.768
44.2400 55.625
44.2600 53.446
44.2800 51.480
44.3000 46.864
44.3200 43.750
44.3400 40.481
44.3600 38.230
44.3800 36.047
44.4000 34.943
44.4200 34.356
44.4400 34.247
44.4600 34.112
44.4800 32.879
44.5000 33.282
44.5200 33.322
44.5400 33.184
44.5600 32.720
44.5800 32.510
44.6000 33.254
44.6200 32.414
44.6400 32.966
44.6600 33.140
44.6800 32.211
44.7000 33.308
44.7200 33.022
44.7400 32.383
44.7600 32.932
44.7800 33.752
44.8000 35.826
44.8200 37.839
44.8400 42.877
44.8600 43.033
44.8800 40.951
44.9000 40.720
44.9200 39.731
44.9400 41.487
44.9600 44.218
44.9800 44.109
45.0000 42.062
45.0200 40.592
45.0400 40.698
45.0600 40.626
45.0800 40.543
45.1000 40.220
45.1200 39.813
45.1400 40.329
45.1600 40.182
45.1800 39.430
45.2000 39.751
45.2200 38.838
45.2400 38.798
45.2600 38.414
45.2800 38.134
45.3000 38.573
45.3200 37.308
45.3400 37.357
45.3600 37.024
45.3800 35.836
45.4000 36.037
45.4200 36.220
45.4400 35.548
45.4600 34.994
45.4800 33.305
45.5000 33.206
45.5200 32.864
45.5400 32.705
45.5600 32.065
45.5800 32.939
45.6000 32.580
45.6200 32.301
45.6400 32.771
45.6600 32.903
45.6800 32.469
45.7000 31.853
45.7200 32.121
45.7400 32.732
45.7600 32.814
45.7800 32.205
45.8000 32.472
45.8200 32.447
45.8400 32.940
45.8600 33.134
45.8800 31.683
45.9000 32.614
45.9200 32.243
45.9400 32.843
45.9600 32.283
45.9800 33.360
46.0000 32.446
46.0200 32.792
46.0400 33.167
46.0600 31.850
46.0800 31.790
46.1000 32.797
46.1200 33.097
46.1400 33.206
46.1600 32.781
46.1800 32.315
46.2000 32.797
46.2200 32.756
46.2400 32.043
46.2600 33.037
46.2800 33.017
46.3000 32.855
46.3200 32.972
46.3400 32.502
46.3600 32.722
46.3800 33.087
46.4000 32.890
46.4200 32.661
46.4400 32.826
46.4600 32.857
46.4800 33.722
46.5000 32.868
46.5200 32.640
46.5400 32.553
46.5600 32.573
46.5800 32.632
46.6000 32.650
46.6200 32.608
