'Id: "" Comment: "" Operator: "Lab Manager" Anode: "Cu" Scantype: "Coupled TwoTheta/Theta" TimePerStep: "113.4655" X: "9999" Y: "9999" Z: "-2.700037" 
20.0000 8.610
20.0200 8.689
20.0400 8.707
20.0600 8.266
20.0800 8.733
20.1000 8.243
20.1200 8.257
20.1400 8.454
20.1600 8.536
20.1800 8.253
20.2000 8.333
20.2200 8.083
20.2400 8.581
20.2600 8.536
20.2800 8.232
20.3000 8.906
20.3200 8.965
20.3400 8.780
20.3600 8.796
20.3800 8.744
20.4000 8.109
20.4200 8.510
20.4400 8.652
20.4600 8.691
20.4800 8.362
20.5000 8.666
20.5200 8.617
20.5400 9.086
20.5600 8.835
20.5800 8.553
20.6000 8.411
20.6200 8.561
20.6400 8.484
20.6600 8.570
20.6800 8.573
20.7000 8.769
20.7200 8.891
20.7400 9.168
20.7600 9.010
20.7800 8.704
20.8000 8.806
20.8200 8.160
20.8400 8.828
20.8600 8.957
20.8800 8.829
20.9000 9.342
20.9200 8.874
20.9400 8.855
20.9600 9.129
20.9800 9.222
21.0000 8.562
21.0200 8.760
21.0400 8.642
21.0600 8.818
21.0800 8.987
21.1000 8.622
21.1200 9.179
21.1400 8.825
21.1600 9.088
21.1800 9.167
21.2000 8.875
21.2200 9.369
21.2400 9.367
21.2600 8.843
21.2800 9.113
21.3000 9.289
21.3200 9.528
21.3400 9.177
21.3600 9.126
21.3800 8.756
21.4000 9.091
21.4200 9.044
21.4400 9.500
21.4600 9.124
21.4800 9.111
21.5000 9.099
21.5200 9.266
21.5400 9.392
21.5600 9.785
21.5800 9.245
21.6000 9.243
21.6200 9.568
21.6400 9.000
21.6600 9.319
21.6800 9.291
21.7000 9.288
21.7200 9.309
21.7400 9.251
21.7600 9.037
21.7800 9.342
21.8000 9.352
21.8200 9.691
21.8400 9.298
21.8600 9.204
21.8800 9.075
21.9000 9.378
21.9200 9.855
21.9400 9.736
21.9600 9.590
21.9800 9.151
22.0000 9.519
22.0200 9.660
22.0400 10.009
22.0600 9.946
22.0800 9.765
22.1000 9.656
22.1200 9.565
22.1400 9.846
22.1600 9.627
22.1800 9.598
22.2000 9.621
22.2200 9.775
22.2400 9.546
22.2600 9.802
22.2800 9.186
22.3000 9.771
22.3200 10.075
22.3400 9.648
22.3600 9.364
22.3800 9.969
22.4000 9.603
22.4200 9.598
22.4400 9.965
22.4600 9.996
22.4800 9.775
22.5000 9.739
22.5200 9.729
22.5400 9.949
22.5600 10.003
22.5800 10.280
22.6000 10.262
22.6200 10.326
22.6400 10.191
22.6600 10.066
22.6800 10.723
22.7000 10.170
22.7200 10.021
22.7400 9.999
22.7600 10.104
22.7800 10.158
22.8000 9.874
22.8200 10.244
22.8400 10.070
22.8600 10.133
22.8800 10.285
22.9000 10.524
22.9200 10.617
22.9400 10.158
22.9600 10.052
22.9800 10.269
23.0000 10.027
23.0200 10.096
23.0400 10.411
23.0600 9.883
23.0800 10.285
23.1000 10.352
23.1200 10.215
23.1400 10.535
23.1600 10.436
23.1800 10.077
23.2000 10.339
23.2200 10.114
23.2400 10.399
23.2600 10.735
23.2800 10.138
23.3000 10.407
23.3200 10.503
23.3400 10.588
23.3600 10.669
23.3800 9.833
23.4000 10.824
23.4200 10.420
23.4400 10.363
23.4600 10.731
23.4800 10.757
23.5000 10.550
23.5200 10.251
23.5400 11.076
23.5600 10.449
23.5800 10.727
23.6000 10.871
23.6200 10.840
23.6400 10.598
23.6600 10.417
23.6800 10.395
23.7000 10.548
23.7200 10.999
23.7400 10.975
23.7600 11.134
23.7800 11.393
23.8000 10.845
23.8200 10.913
23.8400 10.899
23.8600 10.537
23.8800 10.839
23.9000 11.064
23.9200 10.475
23.9400 10.576
23.9600 10.580
23.9800 11.064
24.0000 11.033
24.0200 11.135
24.0400 10.726
24.0600 10.623
24.0800 11.262
24.1000 11.160
24.1200 11.241
24.1400 11.856
24.1600 11.065
24.1800 11.157
24.2000 10.970
24.2200 11.193
24.2400 11.100
24.2600 11.279
24.2800 11.026
24.3000 11.934
24.3200 11.619
24.3400 11.648
24.3600 11.363
24.3800 11.466
24.4000 11.084
24.4200 11.242
24.4400 11.371
24.4600 11.397
24.4800 11.446
24.5000 11.540
24.5200 11.514
24.5400 11.807
24.5600 11.537
24.5800 12.013
24.6000 11.699
24.6200 11.769
24.6400 11.279
24.6600 11.416
24.6800 11.686
24.7000 11.435
24.7200 11.227
24.7400 10.926
24.7600 11.838
24.7800 11.636
24.8000 11.662
24.8200 11.545
24.8400 11.531
24.8600 11.424
24.8800 11.763
24.9000 11.914
24.9200 11.495
24.9400 11.753
24.9600 11.571
24.9800 11.796
25.0000 11.869
25.0200 11.471
25.0400 11.828
25.0600 12.259
25.0800 11.646
25.1000 11.436
25.1200 12.438
25.1400 11.744
25.1600 11.921
25.1800 11.805
25.2000 11.717
25.2200 11.901
25.2400 12.115
25.2600 12.363
25.2800 11.870
25.3000 12.284
25.3200 11.631
25.3400 12.125
25.3600 12.353
25.3800 12.260
25.4000 11.707
25.4200 12.183
25.4400 12.365
25.4600 12.378
25.4800 12.231
25.5000 12.015
25.5200 12.715
25.5400 12.612
25.5600 11.866
25.5800 12.819
25.6000 12.151
25.6200 12.326
25.6400 12.427
25.6600 11.602
25.6800 12.655
25.7000 12.183
25.7200 12.355
25.7400 12.352
25.7600 12.468
25.7800 12.797
25.8000 12.050
25.8200 12.446
25.8400 12.818
25.8600 12.482
25.8800 12.590
25.9000 12.586
25.9200 13.059
25.9400 12.346
25.9600 12.330
25.9800 12.159
26.0000 12.759
26.0200 12.950
26.0400 12.476
26.0600 12.265
26.0800 12.886
26.1000 13.164
26.1200 12.504
26.1400 12.774
26.1600 12.602
26.1800 12.632
26.2000 12.667
26.2200 12.560
26.2400 13.449
26.2600 12.941
26.2800 12.898
26.3000 12.477
26.3200 12.808
26.3400 12.959
26.3600 12.778
26.3800 12.549
26.4000 12.764
26.4200 12.853
26.4400 13.197
26.4600 12.842
26.4800 12.599
26.5000 12.989
26.5200 13.493
26.5400 13.154
26.5600 13.239
26.5800 13.190
26.6000 12.954
26.6200 12.842
26.6400 12.836
26.6600 13.789
26.6800 13.547
26.7000 13.561
26.7200 13.208
26.7400 13.506
26.7600 13.600
26.7800 13.216
26.8000 13.538
26.8200 13.515
26.8400 13.760
26.8600 13.919
26.8800 13.457
26.9000 13.206
26.9200 13.412
26.9400 13.399
26.9600 14.085
26.9800 13.624
27.0000 13.677
27.0200 13.971
27.0400 13.652
27.0600 13.947
27.0800 13.699
27.1000 13.181
27.1200 13.015
27.1400 13.709
27.1600 13.691
27.1800 14.044
27.2000 13.499
27.2200 13.589
27.2400 13.702
27.2600 13.769
27.2800 13.630
27.3000 13.894
27.3200 13.676
27.3400 13.788
27.3600 13.446
27.3800 13.728
27.4000 14.361
27.4200 13.887
27.4400 13.984
27.4600 14.128
27.4800 13.462
27.5000 13.679
27.5200 13.716
27.5400 13.880
27.5600 14.099
27.5800 13.382
27.6000 13.497
27.6200 14.231
27.6400 14.189
27.6600 14.017
27.6800 14.001
27.7000 14.164
27.7200 14.225
27.7400 14.153
27.7600 13.463
27.7800 13.953
27.8000 14.034
27.8200 14.215
27.8400 14.581
27.8600 14.669
27.8800 14.111
27.9000 14.635
27.9200 14.634
27.9400 14.591
27.9600 14.934
27.9800 14.515
28.0000 14.723
28.0200 15.022
28.0400 14.115
28.0600 14.121
28.0800 14.333
28.1000 14.603
28.1200 15.347
28.1400 15.081
28.1600 14.044
28.1800 14.413
28.2000 14.774
28.2200 14.818
28.2400 14.947
28.2600 14.296
28.2800 14.209
28.3000 14.548
28.3200 14.656
28.3400 14.524
28.3600 14.551
28.3800 14.431
28.4000 14.828
28.4200 14.961
28.4400 14.593
28.4600 14.813
28.4800 14.747
28.5000 14.277
28.5200 14.374
28.5400 14.468
28.5600 14.746
28.5800 15.422
28.6000 14.723
28.6200 14.890
28.6400 15.186
28.6600 14.886
28.6800 14.854
28.7000 15.188
28.7200 14.855
28.7400 14.675
28.7600 14.730
28.7800 14.941
28.8000 15.165
28.8200 15.259
28.8400 15.106
28.8600 14.862
28.8800 14.738
28.9000 15.001
28.9200 14.830
28.9400 15.498
28.9600 14.918
28.9800 15.190
29.0000 14.975
29.0200 14.753
29.0400 15.520
29.0600 14.986
29.0800 14.841
29.1000 15.093
29.1200 15.140
29.1400 15.223
29.1600 14.969
29.1800 15.163
29.2000 15.472
29.2200 15.709
29.2400 15.710
29.2600 15.106
29.2800 15.386
29.3000 15.440
29.3200 15.570
29.3400 15.773
29.3600 14.717
29.3800 15.718
29.4000 15.725
29.4200 15.697
29.4400 15.917
29.4600 15.455
29.4800 15.483
29.5000 15.844
29.5200 15.922
29.5400 16.027
29.5600 15.384
29.5800 15.966
29.6000 15.850
29.6200 16.016
29.6400 16.025
29.6600 15.957
29.6800 15.870
29.7000 15.779
29.7200 15.655
29.7400 15.657
29.7600 16.272
29.7800 16.080
29.8000 16.218
29.8200 15.529
29.8400 15.804
29.8600 15.730
29.8800 16.276
29.9000 15.648
29.9200 15.809
29.9400 16.149
29.9600 15.973
29.9800 15.499
30.0000 16.398
30.0200 16.505
30.0400 15.862
30.0600 16.400
30.0800 16.312
30.1000 16.286
30.1200 16.537
30.1400 16.441
30.1600 16.104
30.1800 16.489
30.2000 15.781
30.2200 16.869
30.2400 16.882
30.2600 16.168
30.2800 16.795
30.3000 16.421
30.3200 16.898
30.3400 16.685
30.3600 16.916
30.3800 16.998
30.4000 16.363
30.4200 16.324
30.4400 16.395
30.4600 16.400
30.4800 16.241
30.5000 17.045
30.5200 16.729
30.5400 16.363
30.5600 16.565
30.5800 16.282
30.6000 17.015
30.6200 17.096
30.6400 17.385
30.6600 17.365
30.6800 17.212
30.7000 16.156
30.7200 16.319
30.7400 16.592
30.7600 16.971
30.7800 16.582
30.8000 16.842
30.8200 16.534
30.8400 17.098
30.8600 17.059
30.8800 16.974
30.9000 17.154
30.9200 16.878
30.9400 16.780
30.9600 17.441
30.9800 17.356
31.0000 17.610
31.0200 17.632
31.0400 17.254
31.0600 17.657
31.0800 16.947
31.1000 16.878
31.1200 17.492
31.1400 16.658
31.1600 17.215
31.1800 17.518
31.2000 17.204
31.2200 17.230
31.2400 17.857
31.2600 17.638
31.2800 17.342
31.3000 17.344
31.3200 17.308
31.3400 17.730
31.3600 17.694
31.3800 17.835
31.4000 17.764
31.4200 17.207
31.4400 17.741
31.4600 17.929
31.4800 17.718
31.5000 17.609
31.5200 17.931
31.5400 17.507
31.5600 17.474
31.5800 17.492
31.6000 18.127
31.6200 17.742
31.6400 17.673
31.6600 17.318
31.6800 17.550
31.7000 17.908
31.7200 17.556
31.7400 17.760
31.7600 17.592
31.7800 18.233
31.8000 18.183
31.8200 18.234
31.8400 18.019
31.8600 18.722
31.8800 18.179
31.9000 18.361
31.9200 18.353
31.9400 18.474
31.9600 17.598
31.9800 17.765
32.0000 17.822
32.0200 18.339
32.0400 18.443
32.0600 18.224
32.0800 18.175
32.1000 17.842
32.1200 18.357
32.1400 18.021
32.1600 18.389
32.1800 18.253
32.2000 17.960
32.2200 19.148
32.2400 18.450
32.2600 18.434
32.2800 18.210
32.3000 18.963
32.3200 18.256
32.3400 18.336
32.3600 17.978
32.3800 18.798
32.4000 17.987
32.4200 18.418
32.4400 18.054
32.4600 18.315
32.4800 18.370
32.5000 18.226
32.5200 18.836
32.5400 18.476
32.5600 18.648
32.5800 18.606
32.6000 19.199
32.6200 18.566
32.6400 18.639
32.6600 18.704
32.6800 18.985
32.7000 19.092
32.7200 19.039
32.7400 19.107
32.7600 19.124
32.7800 18.817
32.8000 19.098
32.8200 18.962
32.8400 18.811
32.8600 18.856
32.8800 19.233
32.9000 18.891
32.9200 19.541
32.9400 19.696
32.9600 19.061
32.9800 18.787
33.0000 18.940
33.0200 19.038
33.0400 19.602
33.0600 18.840
33.0800 19.300
33.1000 19.425
33.1200 19.505
33.1400 19.940
33.1600 19.436
33.1800 18.928
33.2000 19.222
33.2200 18.768
33.2400 19.156
33.2600 18.965
33.2800 19.407
33.3000 19.679
33.3200 19.122
33.3400 20.111
33.3600 19.880
33.3800 19.400
33.4000 19.541
33.4200 19.613
33.4400 19.320
33.4600 19.903
33.4800 20.227
33.5000 19.304
33.5200 19.119
33.5400 19.251
33.5600 19.531
33.5800 18.980
33.6000 19.812
33.6200 20.115
33.6400 19.766
33.6600 19.969
33.6800 20.171
33.7000 19.905
33.7200 19.758
33.7400 20.334
33.7600 20.341
33.7800 19.991
33.8000 19.841
33.8200 19.877
33.8400 19.681
33.8600 20.124
33.8800 20.733
33.9000 20.218
33.9200 20.618
33.9400 20.379
33.9600 20.437
33.9800 20.220
34.0000 20.674
34.0200 20.700
34.0400 20.385
34.0600 20.497
34.0800 20.799
34.1000 20.219
34.1200 20.043
34.1400 20.023
34.1600 20.637
34.1800 20.433
34.2000 20.784
34.2200 20.973
34.2400 21.246
34.2600 21.004
34.2800 21.243
34.3000 21.284
34.3200 21.065
34.3400 20.736
34.3600 20.370
34.3800 20.684
34.4000 21.375
34.4200 21.559
34.4400 20.693
34.4600 20.886
34.4800 20.844
34.5000 20.490
34.5200 21.490
34.5400 20.836
34.5600 20.510
34.5800 20.754
34.6000 20.721
34.6200 20.495
34.6400 21.148
34.6600 21.139
34.6800 20.771
34.7000 20.703
34.7200 20.643
34.7400 21.444
34.7600 20.953
34.7800 21.722
34.8000 21.404
34.8200 21.015
34.8400 21.173
34.8600 21.369
34.8800 21.743
34.9000 22.037
34.9200 21.481
34.9400 21.047
34.9600 20.922
34.9800 21.373
35.0000 21.238
35.0200 21.685
35.0400 21.863
35.0600 21.440
35.0800 22.372
35.1000 22.233
35.1200 21.836
35.1400 21.962
35.1600 21.363
35.1800 21.859
35.2000 21.524
35.2200 22.134
35.2400 21.861
35.2600 21.516
35.2800 21.985
35.3000 21.232
35.3200 21.293
35.3400 22.157
35.3600 22.421
35.3800 21.603
35.4000 21.640
35.4200 21.876
35.4400 22.481
35.4600 21.832
35.4800 21.770
35.5000 22.299
35.5200 22.629
35.5400 22.128
35.5600 22.534
35.5800 22.652
35.6000 22.222
35.6200 22.039
35.6400 21.465
35.6600 21.971
35.6800 22.095
35.7000 21.566
35.7200 22.513
35.7400 22.378
35.7600 21.969
35.7800 21.577
35.8000 22.668
35.8200 23.102
35.8400 22.739
35.8600 21.690
35.8800 21.632
35.9000 22.194
35.9200 21.682
35.9400 22.303
35.9600 22.173
35.9800 21.626
36.0000 22.415
36.0200 22.506
36.0400 22.748
36.0600 22.198
36.0800 22.487
36.1000 22.581
36.1200 22.789
36.1400 22.325
36.1600 22.238
36.1800 22.434
36.2000 22.321
36.2200 22.692
36.2400 23.057
36.2600 22.872
36.2800 22.580
36.3000 22.606
36.3200 23.280
36.3400 23.338
36.3600 23.080
36.3800 23.730
36.4000 23.140
36.4200 22.434
36.4400 23.124
36.4600 22.940
36.4800 23.526
36.5000 22.774
36.5200 23.038
36.5400 24.054
36.5600 22.876
36.5800 22.847
36.6000 23.470
36.6200 24.301
36.6400 23.859
36.6600 24.177
36.6800 23.657
36.7000 23.143
36.7200 23.487
36.7400 23.087
36.7600 23.328
36.7800 23.402
36.8000 23.854
36.8200 23.390
36.8400 23.808
36.8600 24.576
36.8800 24.126
36.9000 23.222
36.9200 24.189
36.9400 24.304
36.9600 24.366
36.9800 23.341
37.0000 23.802
37.0200 23.957
37.0400 23.938
37.0600 23.954
37.0800 24.158
37.1000 23.757
37.1200 24.271
37.1400 23.920
37.1600 25.022
37.1800 24.358
37.2000 24.296
37.2200 24.155
37.2400 24.430
37.2600 24.842
37.2800 25.648
37.3000 24.545
37.3200 25.100
37.3400 24.801
37.3600 24.393
37.3800 24.934
37.4000 24.875
37.4200 24.837
37.4400 24.583
37.4600 24.419
37.4800 24.846
37.5000 25.103
37.5200 24.857
37.5400 25.125
37.5600 25.544
37.5800 24.924
37.6000 25.933
37.6200 24.989
37.6400 25.662
37.6600 25.329
37.6800 25.853
37.7000 24.935
37.7200 25.308
37.7400 25.429
37.7600 25.200
37.7800 25.177
37.8000 24.653
37.8200 25.278
37.8400 25.629
37.8600 25.659
37.8800 25.283
37.9000 26.093
37.9200 25.853
37.9400 25.539
37.9600 27.009
37.9800 26.044
38.0000 26.309
38.0200 25.738
38.0400 26.277
38.0600 25.343
38.0800 25.873
38.1000 26.167
38.1200 26.109
38.1400 25.865
38.1600 26.497
38.1800 26.639
38.2000 25.754
38.2200 26.626
38.2400 27.142
38.2600 26.304
38.2800 26.891
38.3000 26.248
38.3200 25.764
38.3400 26.477
38.3600 27.468
38.3800 26.572
38.4000 26.414
38.4200 27.418
38.4400 26.898
38.4600 26.556
38.4800 26.224
38.5000 26.905
38.5200 26.658
38.5400 26.585
38.5600 25.368
38.5800 26.374
38.6000 27.515
38.6200 26.792
38.6400 26.745
38.6600 26.675
38.6800 26.496
38.7000 27.302
38.7200 27.626
38.7400 26.999
38.7600 26.429
38.7800 26.634
38.8000 26.531
38.8200 27.020
38.8400 26.883
38.8600 27.161
38.8800 26.862
38.9000 26.820
38.9200 26.674
38.9400 26.827
38.9600 27.324
38.9800 27.260
39.0000 27.274
39.0200 27.812
39.0400 27.082
39.0600 27.251
39.0800 27.756
39.1000 27.453
39.1200 27.079
39.1400 27.154
39.1600 27.350
39.1800 27.827
39.2000 27.852
39.2200 28.548
39.2400 27.667
39.2600 26.263
39.2800 27.274
39.3000 27.992
39.3200 27.893
39.3400 27.943
39.3600 27.832
39.3800 28.372
39.4000 28.119
39.4200 27.854
39.4400 27.449
39.4600 27.975
39.4800 28.092
39.5000 27.839
39.5200 27.825
39.5400 27.983
39.5600 27.742
39.5800 28.168
39.6000 28.463
39.6200 28.683
39.6400 28.483
39.6600 28.652
39.6800 28.500
39.7000 28.445
39.7200 28.075
39.7400 28.280
39.7600 28.296
39.7800 29.200
39.8000 28.505
39.8200 27.949
39.8400 28.591
39.8600 28.646
39.8800 27.602
39.9000 28.220
39.9200 28.053
39.9400 28.198
39.9600 28.035
39.9800 28.249
40.0000 28.147
40.0200 28.791
40.0400 28.660
40.0600 28.348
40.0800 27.637
40.1000 27.921
40.1200 28.753
40.1400 27.923
40.1600 28.113
40.1800 28.341
40.2000 27.702
40.2200 27.865
40.2400 28.550
40.2600 28.546
40.2800 28.399
40.3000 28.861
40.3200 29.040
40.3400 29.290
40.3600 28.884
40.3800 28.786
40.4000 28.560
40.4200 28.203
40.4400 29.074
40.4600 28.687
40.4800 29.197
40.5000 29.990
40.5200 29.562
40.5400 29.137
40.5600 29.506
40.5800 28.748
40.6000 28.690
40.6200 28.570
40.6400 28.718
40.6600 28.919
40.6800 28.820
40.7000 29.456
40.7200 29.736
40.7400 29.132
40.7600 29.331
40.7800 29.849
40.8000 30.288
40.8200 29.929
40.8400 29.034
40.8600 28.744
40.8800 28.907
40.9000 29.889
40.9200 29.790
40.9400 29.946
40.9600 29.588
40.9800 29.270
41.0000 29.673
41.0200 29.311
41.0400 29.297
41.0600 28.910
41.0800 28.731
41.1000 29.170
41.1200 29.636
41.1400 29.984
41.1600 29.571
41.1800 29.446
41.2000 28.559
41.2200 29.621
41.2400 30.068
41.2600 30.165
41.2800 30.245
41.3000 29.972
41.3200 29.948
41.3400 29.969
41.3600 29.486
41.3800 29.383
41.4000 29.991
41.4200 29.873
41.4400 29.511
41.4600 30.249
41.4800 30.230
41.5000 30.369
41.5200 30.151
41.5400 29.699
41.5600 31.620
41.5800 30.269
41.6000 29.882
41.6200 30.626
41.6400 29.940
41.6600 29.943
41.6800 29.811
41.7000 29.570
41.7200 29.587
41.7400 29.780
41.7600 29.950
41.7800 29.410
41.8000 30.822
41.8200 30.226
41.8400 30.274
41.8600 29.963
41.8800 30.622
41.9000 30.108
41.9200 30.854
41.9400 30.251
41.9600 29.870
41.9800 30.340
42.0000 30.747
42.0200 30.329
42.0400 29.840
42.0600 30.500
42.0800 30.268
42.1000 30.631
42.1200 30.062
42.1400 30.161
42.1600 29.717
42.1800 29.980
42.2000 30.460
42.2200 29.901
42.2400 30.646
42.2600 29.942
42.2800 31.232
42.3000 30.742
42.3200 30.007
42.3400 31.023
42.3600 31.641
42.3800 30.994
42.4000 31.083
42.4200 30.634
42.4400 31.354
42.4600 31.389
42.4800 31.567
42.5000 31.442
42.5200 31.339
42.5400 31.638
42.5600 32.033
42.5800 32.032
42.6000 31.180
42.6200 31.427
42.6400 31.097
42.6600 31.606
42.6800 29.945
42.7000 31.482
42.7200 29.994
42.7400 30.436
42.7600 31.268
42.7800 30.705
42.8000 30.325
42.8200 31.188
42.8400 32.125
42.8600 31.181
42.8800 31.343
42.9000 31.343
42.9200 32.169
42.9400 31.598
42.9600 31.440
42.9800 31.546
43.0000 30.957
43.0200 31.689
43.0400 31.526
43.0600 31.498
43.0800 31.643
43.1000 32.003
43.1200 31.659
43.1400 31.669
43.1600 32.454
43.1800 31.278
43.2000 31.853
43.2200 30.952
43.2400 30.890
43.2600 31.460
43.2800 31.924
43.3000 31.744
43.3200 31.461
43.3400 30.917
43.3600 32.183
43.3800 32.008
43.4000 31.249
43.4200 31.435
43.4400 31.432
43.4600 31.601
43.4800 31.337
43.5000 31.681
43.5200 32.464
43.5400 32.644
43.5600 32.495
43.5800 32.600
43.6000 31.877
43.6200 32.207
43.6400 31.904
43.6600 33.007
43.6800 32.717
43.7000 32.414
43.7200 32.950
43.7400 32.856
43.7600 32.740
43.7800 32.523
43.8000 33.802
43.8200 32.949
43.8400 33.495
43.8600 33.517
43.8800 33.894
43.9000 34.565
43.9200 33.591
43.9400 34.373
43.9600 35.923
43.9800 36.106
44.0000 36.646
44.0200 38.108
44.0400 39.481
44.0600 42.647
44.0800 46.677
44.1000 52.432
44.1200 55.933
44.1400 62.745
44.1600 63.429
44.1800 64.454
44.2000 62.682
44.2200 60.935
44.2400 59.067
44.2600 55.911
44.2800 55.047
44.3000 51.629
44.3200 48.400
44.3400 45.788
44.3600 42.328
44.3800 39.785
44.4000 38.039
44.4200 36.432
44.4400 36.121
44.4600 35.887
44.4800 34.369
44.5000 34.742
44.5200 33.832
44.5400 33.077
44.5600 33.896
44.5800 33.379
44.6000 32.287
44.6200 32.821
44.6400 32.396
44.6600 33.423
44.6800 33.452
44.7000 33.109
44.7200 32.717
44.7400 33.596
44.7600 33.192
44.7800 33.855
44.8000 33.637
44.8200 33.700
44.8400 36.029
44.8600 39.224
44.8800 41.629
44.9000 41.378
44.9200 39.390
44.9400 39.324
44.9600 39.023
44.9800 39.814
45.0000 41.405
45.0200 41.431
45.0400 39.372
45.0600 38.815
45.0800 37.976
45.1000 37.995
45.1200 38.470
45.1400 38.771
45.1600 38.561
45.1800 39.029
45.2000 38.342
45.2200 38.695
45.2400 38.812
45.2600 38.287
45.2800 37.729
45.3000 37.811
45.3200 37.601
45.3400 36.288
45.3600 36.798
45.3800 36.879
45.4000 35.427
45.4200 35.441
45.4400 34.974
45.4600 34.326
45.4800 34.208
45.5000 33.593
45.5200 34.586
45.5400 34.548
45.5600 33.562
45.5800 32.571
45.6000 33.514
45.6200 32.979
45.6400 33.515
45.6600 32.883
45.6800 33.003
45.7000 33.201
45.7200 33.251
45.7400 33.075
45.7600 33.691
45.7800 32.595
45.8000 32.903
45.8200 33.380
45.8400 31.853
45.8600 32.376
45.8800 32.414
45.9000 32.644
45.9200 32.621
45.9400 33.574
45.9600 33.134
45.9800 33.360
46.0000 33.046
46.0200 33.253
46.0400 33.390
46.0600 32.589
46.0800 32.631
46.1000 32.645
46.1200 33.460
46.1400 32.967
46.1600 32.904
46.1800 33.177
46.2000 33.192
46.2200 33.443
46.2400 33.726
46.2600 33.012
46.2800 33.006
46.3000 33.011
46.3200 33.543
46.3400 33.552
46.3600 33.341
46.3800 33.343
46.4000 33.334
46.4200 33.077
46.4400 33.808
46.4600 33.823
46.4800 33.276
46.5000 33.399
46.5200 33.522
46.5400 32.990
46.5600 31.652
46.5800 32.715
46.6000 32.806
