'Id: "" Comment: "" Operator: "Lab Manager" Anode: "Cu" Scantype: "Coupled TwoTheta/Theta" TimePerStep: "113.4654" X: "9999" Y: "9999" Z: "-2.700037" 
20.0000 7.840
20.0200 7.844
20.0400 7.819
20.0600 7.895
20.0800 7.497
20.1000 7.927
20.1200 7.874
20.1400 7.789
20.1600 7.619
20.1800 7.600
20.2000 8.076
20.2200 7.864
20.2400 7.905
20.2600 7.964
20.2800 8.081
20.3000 8.213
20.3200 7.949
20.3400 8.159
20.3600 8.341
20.3800 8.034
20.4000 8.338
20.4200 8.218
20.4400 8.543
20.4600 8.185
20.4800 8.001
20.5000 7.989
20.5200 8.016
20.5400 8.199
20.5600 8.387
20.5800 8.358
20.6000 8.215
20.6200 8.064
20.6400 8.104
20.6600 8.591
20.6800 8.686
20.7000 8.497
20.7200 8.454
20.7400 8.590
20.7600 8.366
20.7800 8.463
20.8000 8.895
20.8200 8.248
20.8400 8.752
20.8600 8.829
20.8800 8.512
20.9000 8.913
20.9200 8.316
20.9400 8.542
20.9600 8.697
20.9800 8.445
21.0000 7.999
21.0200 8.697
21.0400 8.308
21.0600 8.740
21.0800 9.098
21.1000 9.043
21.1200 8.892
21.1400 8.430
21.1600 8.847
21.1800 9.136
21.2000 8.643
21.2200 8.839
21.2400 8.669
21.2600 9.167
21.2800 9.124
21.3000 8.836
21.3200 9.098
21.3400 9.043
21.3600 9.159
21.3800 9.088
21.4000 8.724
21.4200 8.446
21.4400 8.742
21.4600 8.526
21.4800 8.818
21.5000 9.150
21.5200 8.925
21.5400 8.892
21.5600 8.571
21.5800 8.637
21.6000 8.779
21.6200 9.342
21.6400 9.144
21.6600 9.049
21.6800 9.281
21.7000 9.073
21.7200 8.869
21.7400 9.172
21.7600 9.257
21.7800 9.356
21.8000 9.503
21.8200 9.106
21.8400 9.214
21.8600 9.532
21.8800 8.816
21.9000 9.330
21.9200 9.090
21.9400 9.236
21.9600 9.452
21.9800 9.188
22.0000 9.414
22.0200 8.710
22.0400 9.513
22.0600 9.357
22.0800 9.013
22.1000 8.909
22.1200 9.722
22.1400 9.385
22.1600 9.409
22.1800 9.261
22.2000 9.359
22.2200 9.860
22.2400 9.590
22.2600 9.108
22.2800 9.714
22.3000 9.574
22.3200 9.202
22.3400 9.454
22.3600 9.322
22.3800 9.339
22.4000 9.427
22.4200 9.811
22.4400 9.813
22.4600 9.454
22.4800 9.790
22.5000 9.670
22.5200 9.459
22.5400 9.710
22.5600 9.950
22.5800 10.013
22.6000 9.541
22.6200 9.720
22.6400 10.005
22.6600 10.210
22.6800 9.459
22.7000 9.720
22.7200 9.874
22.7400 9.872
22.7600 9.600
22.7800 9.588
22.8000 10.118
22.8200 10.312
22.8400 9.406
22.8600 10.434
22.8800 9.983
22.9000 9.907
22.9200 9.717
22.9400 9.765
22.9600 10.218
22.9800 10.133
23.0000 9.995
23.0200 9.910
23.0400 10.071
23.0600 10.280
23.0800 10.589
23.1000 10.066
23.1200 10.161
23.1400 10.477
23.1600 10.693
23.1800 9.895
23.2000 10.131
23.2200 10.237
23.2400 10.017
23.2600 10.471
23.2800 9.551
23.3000 9.822
23.3200 10.274
23.3400 10.388
23.3600 10.116
23.3800 9.917
23.4000 9.977
23.4200 10.319
23.4400 9.948
23.4600 10.291
23.4800 10.243
23.5000 10.564
23.5200 10.771
23.5400 10.544
23.5600 10.505
23.5800 10.792
23.6000 10.465
23.6200 10.158
23.6400 10.677
23.6600 10.959
23.6800 10.514
23.7000 10.868
23.7200 10.336
23.7400 10.705
23.7600 10.598
23.7800 10.999
23.8000 10.989
23.8200 10.609
23.8400 10.508
23.8600 10.499
23.8800 10.394
23.9000 10.991
23.9200 10.616
23.9400 10.596
23.9600 10.613
23.9800 11.072
24.0000 10.780
24.0200 10.409
24.0400 10.782
24.0600 11.409
24.0800 11.544
24.1000 11.414
24.1200 10.532
24.1400 10.745
24.1600 10.874
24.1800 11.168
24.2000 10.897
24.2200 10.390
24.2400 11.489
24.2600 11.113
24.2800 10.942
24.3000 11.054
24.3200 11.030
24.3400 10.772
24.3600 10.222
24.3800 10.636
24.4000 11.463
24.4200 10.963
24.4400 11.027
24.4600 10.892
24.4800 11.344
24.5000 11.189
24.5200 11.079
24.5400 11.578
24.5600 10.896
24.5800 11.124
24.6000 11.341
24.6200 11.284
24.6400 11.732
24.6600 11.420
24.6800 11.529
24.7000 11.307
24.7200 11.189
24.7400 11.322
24.7600 11.765
24.7800 11.386
24.8000 11.390
24.8200 11.267
24.8400 11.274
24.8600 11.161
24.8800 11.237
24.9000 11.170
24.9200 11.104
24.9400 11.559
24.9600 11.197
24.9800 11.578
25.0000 11.331
25.0200 12.121
25.0400 11.168
25.0600 11.748
25.0800 11.045
25.1000 11.289
25.1200 11.290
25.1400 11.079
25.1600 11.215
25.1800 11.588
25.2000 11.449
25.2200 11.950
25.2400 11.530
25.2600 11.534
25.2800 11.725
25.3000 11.970
25.3200 12.084
25.3400 11.630
25.3600 11.496
25.3800 11.905
25.4000 11.296
25.4200 11.906
25.4400 12.030
25.4600 12.266
25.4800 11.845
25.5000 11.966
25.5200 11.609
25.5400 12.121
25.5600 12.572
25.5800 12.137
25.6000 11.669
25.6200 12.021
25.6400 12.026
25.6600 11.649
25.6800 12.298
25.7000 12.423
25.7200 12.125
25.7400 12.135
25.7600 11.839
25.7800 11.704
25.8000 12.130
25.8200 12.283
25.8400 12.341
25.8600 12.205
25.8800 12.555
25.9000 12.066
25.9200 12.240
25.9400 12.093
25.9600 12.276
25.9800 12.624
26.0000 12.767
26.0200 12.580
26.0400 12.409
26.0600 12.541
26.0800 12.551
26.1000 12.851
26.1200 11.808
26.1400 12.561
26.1600 12.734
26.1800 12.471
26.2000 12.757
26.2200 12.414
26.2400 12.553
26.2600 12.070
26.2800 12.407
26.3000 12.338
26.3200 12.817
26.3400 13.023
26.3600 12.297
26.3800 12.891
26.4000 12.551
26.4200 12.080
26.4400 12.607
26.4600 12.535
26.4800 12.471
26.5000 12.339
26.5200 12.301
26.5400 12.438
26.5600 12.790
26.5800 13.314
26.6000 12.655
26.6200 12.447
26.6400 12.588
26.6600 12.598
26.6800 12.996
26.7000 12.558
26.7200 12.942
26.7400 12.874
26.7600 12.785
26.7800 12.683
26.8000 13.031
26.8200 13.138
26.8400 13.400
26.8600 13.189
26.8800 13.336
26.9000 12.888
26.9200 12.753
26.9400 12.984
26.9600 12.721
26.9800 12.954
27.0000 12.808
27.0200 12.392
27.0400 12.579
27.0600 13.636
27.0800 13.433
27.1000 12.885
27.1200 13.303
27.1400 13.567
27.1600 13.579
27.1800 13.178
27.2000 13.028
27.2200 12.627
27.2400 12.718
27.2600 13.412
27.2800 13.264
27.3000 13.121
27.3200 13.411
27.3400 13.552
27.3600 13.118
27.3800 12.952
27.4000 13.678
27.4200 13.484
27.4400 13.520
27.4600 13.237
27.4800 13.364
27.5000 13.512
27.5200 13.806
27.5400 13.354
27.5600 13.736
27.5800 13.850
27.6000 13.105
27.6200 13.639
27.6400 13.623
27.6600 13.586
27.6800 13.331
27.7000 13.785
27.7200 14.151
27.7400 13.663
27.7600 13.920
27.7800 13.859
27.8000 13.594
27.8200 14.230
27.8400 13.286
27.8600 13.027
27.8800 13.636
27.9000 13.945
27.9200 13.765
27.9400 13.743
27.9600 13.656
27.9800 13.845
28.0000 13.920
28.0200 14.098
28.0400 13.832
28.0600 13.958
28.0800 14.076
28.1000 14.376
28.1200 13.910
28.1400 13.800
28.1600 14.587
28.1800 14.342
28.2000 14.009
28.2200 13.901
28.2400 13.802
28.2600 14.189
28.2800 14.290
28.3000 14.312
28.3200 14.074
28.3400 14.089
28.3600 13.951
28.3800 13.899
28.4000 13.860
28.4200 14.439
28.4400 14.267
28.4600 14.073
28.4800 14.009
28.5000 14.612
28.5200 13.971
28.5400 14.132
28.5600 14.408
28.5800 14.689
28.6000 14.431
28.6200 14.559
28.6400 14.765
28.6600 14.165
28.6800 14.763
28.7000 14.460
28.7200 14.534
28.7400 14.965
28.7600 14.946
28.7800 14.706
28.8000 14.532
28.8200 14.811
28.8400 15.081
28.8600 14.732
28.8800 14.360
28.9000 14.987
28.9200 14.865
28.9400 14.514
28.9600 14.550
28.9800 14.550
29.0000 14.544
29.0200 14.865
29.0400 14.113
29.0600 14.587
29.0800 14.574
29.1000 14.876
29.1200 14.608
29.1400 15.242
29.1600 15.336
29.1800 15.331
29.2000 15.012
29.2200 15.070
29.2400 15.332
29.2600 15.613
29.2800 15.175
29.3000 15.126
29.3200 15.067
29.3400 15.307
29.3600 15.708
29.3800 15.860
29.4000 15.513
29.4200 15.247
29.4400 15.123
29.4600 15.565
29.4800 15.736
29.5000 15.649
29.5200 15.309
29.5400 15.471
29.5600 15.607
29.5800 16.130
29.6000 15.708
29.6200 16.059
29.6400 15.665
29.6600 16.146
29.6800 15.698
29.7000 15.457
29.7200 16.741
29.7400 15.942
29.7600 15.820
29.7800 15.958
29.8000 15.536
29.8200 15.484
29.8400 15.906
29.8600 15.304
29.8800 15.900
29.9000 16.265
29.9200 15.898
29.9400 15.291
29.9600 15.672
29.9800 16.015
30.0000 15.112
30.0200 15.349
30.0400 15.514
30.0600 15.560
30.0800 15.428
30.1000 15.585
30.1200 15.676
30.1400 15.725
30.1600 16.282
30.1800 15.937
30.2000 15.968
30.2200 16.291
30.2400 16.322
30.2600 15.579
30.2800 15.599
30.3000 15.475
30.3200 16.341
30.3400 16.472
30.3600 16.356
30.3800 16.088
30.4000 15.602
30.4200 16.371
30.4400 15.900
30.4600 15.478
30.4800 16.323
30.5000 16.373
30.5200 16.939
30.5400 16.504
30.5600 16.193
30.5800 16.197
30.6000 16.646
30.6200 16.207
30.6400 16.765
30.6600 16.924
30.6800 15.973
30.7000 16.731
30.7200 15.930
30.7400 16.503
30.7600 16.842
30.7800 16.500
30.8000 16.270
30.8200 16.351
30.8400 16.998
30.8600 16.724
30.8800 16.445
30.9000 16.270
30.9200 16.654
30.9400 17.028
30.9600 17.138
30.9800 17.137
31.0000 16.981
31.0200 16.439
31.0400 16.637
31.0600 16.639
31.0800 16.572
31.1000 16.800
31.1200 16.695
31.1400 16.821
31.1600 17.207
31.1800 17.183
31.2000 16.676
31.2200 17.032
31.2400 17.281
31.2600 16.760
31.2800 16.568
31.3000 17.234
31.3200 16.764
31.3400 16.593
31.3600 16.950
31.3800 17.541
31.4000 17.094
31.4200 17.335
31.4400 17.444
31.4600 17.245
31.4800 16.558
31.5000 16.769
31.5200 17.556
31.5400 17.502
31.5600 17.017
31.5800 17.269
31.6000 16.443
31.6200 17.286
31.6400 17.590
31.6600 17.393
31.6800 17.955
31.7000 16.920
31.7200 17.100
31.7400 16.683
31.7600 18.306
31.7800 17.430
31.8000 17.808
31.8200 17.596
31.8400 18.125
31.8600 17.660
31.8800 17.384
31.9000 17.448
31.9200 16.691
31.9400 17.446
31.9600 17.949
31.9800 18.449
32.0000 17.499
32.0200 17.547
32.0400 17.018
32.0600 17.541
32.0800 17.395
32.1000 17.817
32.1200 18.020
32.1400 17.304
32.1600 18.559
32.1800 18.346
32.2000 17.720
32.2200 18.068
32.2400 18.494
32.2600 17.679
32.2800 17.714
32.3000 17.144
32.3200 17.099
32.3400 17.569
32.3600 18.328
32.3800 18.368
32.4000 18.198
32.4200 18.158
32.4400 18.267
32.4600 18.072
32.4800 17.798
32.5000 18.218
32.5200 18.642
32.5400 19.045
32.5600 18.109
32.5800 17.945
32.6000 18.236
32.6200 18.160
32.6400 18.673
32.6600 18.467
32.6800 18.433
32.7000 18.484
32.7200 18.750
32.7400 18.853
32.7600 18.659
32.7800 18.791
32.8000 18.272
32.8200 17.849
32.8400 18.116
32.8600 18.226
32.8800 19.180
32.9000 19.522
32.9200 18.600
32.9400 18.350
32.9600 18.095
32.9800 17.999
33.0000 17.642
33.0200 19.089
33.0400 18.853
33.0600 18.960
33.0800 19.058
33.1000 18.572
33.1200 18.878
33.1400 19.130
33.1600 18.630
33.1800 19.348
33.2000 18.859
33.2200 18.744
33.2400 19.348
33.2600 18.774
33.2800 19.240
33.3000 19.391
33.3200 18.786
33.3400 18.715
33.3600 18.847
33.3800 19.947
33.4000 19.540
33.4200 18.809
33.4400 19.178
33.4600 18.612
33.4800 19.979
33.5000 19.275
33.5200 19.519
33.5400 19.927
33.5600 19.384
33.5800 19.280
33.6000 19.518
33.6200 19.875
33.6400 19.619
33.6600 20.028
33.6800 19.399
33.7000 19.401
33.7200 18.975
33.7400 19.365
33.7600 19.817
33.7800 19.486
33.8000 18.777
33.8200 18.741
33.8400 18.836
33.8600 20.111
33.8800 20.393
33.9000 19.651
33.9200 19.426
33.9400 19.837
33.9600 19.881
33.9800 19.756
34.0000 19.707
34.0200 19.310
34.0400 19.973
34.0600 20.033
34.0800 20.135
34.1000 20.069
34.1200 20.027
34.1400 20.120
34.1600 20.364
34.1800 19.999
34.2000 20.759
34.2200 20.065
34.2400 19.930
34.2600 19.666
34.2800 20.081
34.3000 20.468
34.3200 20.595
34.3400 20.023
34.3600 19.862
34.3800 19.674
34.4000 20.475
34.4200 20.300
34.4400 20.840
34.4600 21.025
34.4800 20.480
34.5000 20.311
34.5200 20.553
34.5400 19.970
34.5600 20.602
34.5800 20.847
34.6000 20.476
34.6200 20.320
34.6400 20.935
34.6600 20.822
34.6800 20.627
34.7000 21.021
34.7200 20.011
34.7400 20.970
34.7600 20.744
34.7800 20.892
34.8000 20.761
34.8200 20.996
34.8400 21.618
34.8600 21.259
34.8800 22.056
34.9000 21.786
34.9200 21.823
34.9400 21.542
34.9600 22.076
34.9800 22.830
35.0000 22.606
35.0200 23.606
35.0400 22.974
35.0600 22.569
35.0800 22.924
35.1000 22.239
35.1200 22.030
35.1400 21.916
35.1600 21.385
35.1800 21.675
35.2000 21.721
35.2200 21.418
35.2400 21.241
35.2600 20.980
35.2800 21.331
35.3000 21.405
35.3200 21.909
35.3400 21.793
35.3600 21.345
35.3800 21.698
35.4000 21.229
35.4200 21.054
35.4400 21.827
35.4600 22.200
35.4800 20.499
35.5000 21.633
35.5200 21.843
35.5400 21.767
35.5600 22.300
35.5800 21.515
35.6000 21.118
35.6200 21.607
35.6400 21.335
35.6600 21.594
35.6800 22.020
35.7000 21.420
35.7200 22.023
35.7400 22.095
35.7600 21.963
35.7800 21.666
35.8000 21.459
35.8200 22.501
35.8400 21.323
35.8600 21.197
35.8800 22.386
35.9000 22.276
35.9200 20.882
35.9400 22.073
35.9600 21.938
35.9800 22.078
36.0000 22.234
36.0200 22.337
36.0400 22.121
36.0600 22.234
36.0800 22.361
36.1000 22.836
36.1200 21.423
36.1400 21.683
36.1600 21.990
36.1800 22.521
36.2000 22.164
36.2200 21.886
36.2400 22.180
36.2600 21.860
36.2800 22.198
36.3000 22.023
36.3200 22.194
36.3400 21.708
36.3600 22.255
36.3800 22.382
36.4000 22.198
36.4200 22.350
36.4400 22.476
36.4600 22.405
36.4800 22.197
36.5000 22.098
36.5200 23.450
36.5400 23.142
36.5600 22.578
36.5800 23.293
36.6000 23.077
36.6200 23.044
36.6400 22.024
36.6600 22.912
36.6800 23.297
36.7000 23.308
36.7200 23.182
36.7400 23.494
36.7600 23.536
36.7800 22.418
36.8000 22.646
36.8200 22.912
36.8400 23.182
36.8600 23.558
36.8800 23.680
36.9000 23.057
36.9200 23.174
36.9400 23.313
36.9600 23.527
36.9800 23.110
37.0000 24.114
37.0200 24.290
37.0400 23.755
37.0600 23.399
37.0800 23.885
37.1000 23.945
37.1200 24.560
37.1400 23.426
37.1600 23.097
37.1800 23.819
37.2000 24.214
37.2200 24.758
37.2400 24.517
37.2600 23.775
37.2800 23.933
37.3000 24.476
37.3200 24.272
37.3400 24.294
37.3600 24.438
37.3800 24.714
37.4000 24.524
37.4200 24.876
37.4400 24.582
37.4600 24.241
37.4800 24.659
37.5000 24.992
37.5200 24.167
37.5400 24.398
37.5600 24.334
37.5800 23.716
37.6000 25.017
37.6200 24.924
37.6400 24.288
37.6600 24.821
37.6800 26.151
37.7000 24.612
37.7200 24.018
37.7400 24.896
37.7600 24.881
37.7800 25.411
37.8000 24.657
37.8200 25.399
37.8400 25.751
37.8600 24.428
37.8800 25.010
37.9000 24.786
37.9200 24.758
37.9400 24.755
37.9600 25.058
37.9800 25.130
38.0000 25.165
38.0200 24.945
38.0400 25.359
38.0600 25.246
38.0800 25.175
38.1000 24.817
38.1200 25.882
38.1400 25.498
38.1600 25.735
38.1800 27.029
38.2000 25.474
38.2200 24.808
38.2400 25.414
38.2600 26.323
38.2800 25.873
38.3000 25.878
38.3200 25.961
38.3400 25.523
38.3600 26.334
38.3800 26.199
38.4000 26.422
38.4200 26.028
38.4400 25.788
38.4600 25.785
38.4800 25.570
38.5000 25.820
38.5200 25.576
38.5400 26.454
38.5600 26.098
38.5800 26.145
38.6000 26.270
38.6200 26.424
38.6400 26.813
38.6600 26.183
38.6800 25.599
38.7000 26.398
38.7200 25.812
38.7400 26.420
38.7600 26.754
38.7800 27.078
38.8000 26.088
38.8200 26.576
38.8400 27.528
38.8600 27.105
38.8800 26.152
38.9000 26.223
38.9200 26.802
38.9400 26.663
38.9600 26.485
38.9800 26.174
39.0000 26.556
39.0200 26.631
39.0400 26.784
39.0600 26.503
39.0800 26.675
39.1000 26.801
39.1200 26.749
39.1400 26.603
39.1600 27.612
39.1800 28.187
39.2000 27.280
39.2200 26.477
39.2400 27.184
39.2600 26.583
39.2800 27.173
39.3000 26.678
39.3200 27.523
39.3400 26.853
39.3600 26.999
39.3800 26.815
39.4000 27.111
39.4200 26.735
39.4400 26.950
39.4600 27.132
39.4800 27.274
39.5000 26.723
39.5200 27.153
39.5400 27.502
39.5600 27.100
39.5800 27.026
39.6000 26.099
39.6200 27.495
39.6400 27.374
39.6600 26.596
39.6800 28.062
39.7000 27.752
39.7200 27.021
39.7400 27.352
39.7600 27.443
39.7800 27.664
39.8000 26.888
39.8200 27.665
39.8400 27.846
39.8600 28.106
39.8800 27.899
39.9000 27.535
39.9200 27.306
39.9400 27.423
39.9600 27.018
39.9800 27.508
40.0000 27.707
40.0200 27.963
40.0400 28.116
40.0600 27.971
40.0800 28.222
40.1000 28.342
40.1200 28.182
40.1400 27.567
40.1600 27.550
40.1800 28.046
40.2000 28.207
40.2200 27.127
40.2400 28.050
40.2600 28.361
40.2800 27.756
40.3000 27.735
40.3200 28.056
40.3400 29.116
40.3600 28.155
40.3800 28.050
40.4000 28.623
40.4200 28.795
40.4400 28.620
40.4600 28.315
40.4800 28.316
40.5000 28.923
40.5200 28.693
40.5400 28.703
40.5600 28.706
40.5800 27.739
40.6000 28.681
40.6200 28.319
40.6400 28.754
40.6600 28.743
40.6800 28.719
40.7000 29.122
40.7200 28.402
40.7400 28.823
40.7600 29.420
40.7800 28.913
40.8000 28.179
40.8200 29.499
40.8400 28.612
40.8600 28.850
40.8800 28.885
40.9000 27.987
40.9200 28.883
40.9400 28.686
40.9600 27.924
40.9800 28.729
41.0000 27.977
41.0200 28.882
41.0400 29.462
41.0600 28.180
41.0800 29.242
41.1000 29.047
41.1200 28.901
41.1400 29.615
41.1600 28.847
41.1800 29.957
41.2000 29.941
41.2200 29.190
41.2400 28.265
41.2600 29.086
41.2800 29.517
41.3000 28.505
41.3200 28.999
41.3400 28.716
41.3600 29.325
41.3800 28.929
41.4000 29.638
41.4200 28.594
41.4400 29.057
41.4600 28.733
41.4800 28.704
41.5000 29.675
41.5200 28.749
41.5400 29.485
41.5600 28.667
41.5800 28.970
41.6000 29.407
41.6200 29.396
41.6400 29.817
41.6600 29.729
41.6800 29.890
41.7000 29.454
41.7200 29.567
41.7400 29.620
41.7600 29.170
41.7800 29.509
41.8000 29.882
41.8200 30.189
41.8400 29.329
41.8600 29.192
41.8800 29.008
41.9000 29.257
41.9200 29.906
41.9400 29.819
41.9600 29.297
41.9800 30.202
42.0000 29.703
42.0200 29.702
42.0400 29.819
42.0600 30.413
42.0800 30.364
42.1000 30.502
42.1200 29.603
42.1400 29.917
42.1600 29.629
42.1800 30.072
42.2000 29.318
42.2200 29.444
42.2400 30.291
42.2600 29.989
42.2800 29.901
42.3000 30.638
42.3200 30.316
42.3400 30.619
42.3600 30.177
42.3800 30.316
42.4000 29.685
42.4200 30.619
42.4400 30.798
42.4600 31.578
42.4800 31.401
42.5000 32.128
42.5200 32.021
42.5400 32.180
42.5600 32.260
42.5800 31.430
42.6000 31.247
42.6200 31.420
42.6400 32.039
42.6600 31.238
42.6800 30.912
42.7000 30.897
42.7200 31.612
42.7400 30.736
42.7600 31.251
42.7800 29.918
42.8000 30.068
42.8200 29.998
42.8400 31.148
42.8600 30.664
42.8800 31.143
42.9000 30.381
42.9200 30.221
42.9400 31.266
42.9600 29.987
42.9800 30.635
43.0000 31.685
43.0200 30.754
43.0400 30.041
43.0600 30.018
43.0800 29.991
43.1000 30.335
43.1200 30.535
43.1400 30.252
43.1600 31.192
43.1800 30.561
43.2000 31.212
43.2200 31.326
43.2400 30.016
43.2600 29.831
43.2800 30.695
43.3000 30.797
43.3200 30.501
43.3400 30.208
43.3600 29.902
43.3800 31.313
43.4000 31.473
43.4200 30.049
43.4400 30.464
43.4600 31.425
43.4800 30.583
43.5000 32.233
43.5200 30.826
43.5400 30.464
43.5600 31.292
43.5800 32.119
43.6000 32.276
43.6200 31.928
43.6400 31.164
43.6600 31.516
43.6800 31.102
43.7000 31.819
43.7200 31.994
43.7400 31.976
43.7600 32.279
43.7800 31.980
43.8000 32.328
43.8200 32.622
43.8400 32.221
43.8600 32.532
43.8800 33.560
43.9000 33.422
43.9200 34.031
43.9400 33.682
43.9600 33.783
43.9800 34.855
44.0000 36.146
44.0200 37.816
44.0400 40.184
44.0600 44.275
44.0800 47.766
44.1000 53.630
44.1200 57.156
44.1400 61.545
44.1600 62.378
44.1800 61.880
44.2000 59.150
44.2200 55.910
44.2400 54.822
44.2600 52.544
44.2800 49.909
44.3000 47.495
44.3200 44.664
44.3400 40.875
44.3600 37.679
44.3800 36.587
44.4000 35.131
44.4200 34.120
44.4400 34.593
44.4600 33.602
44.4800 32.980
44.5000 33.410
44.5200 32.744
44.5400 32.329
44.5600 32.187
44.5800 32.878
44.6000 32.379
44.6200 31.960
44.6400 31.890
44.6600 31.713
44.6800 32.333
44.7000 32.990
44.7200 32.126
44.7400 33.016
44.7600 33.417
44.7800 34.536
44.8000 38.446
44.8200 42.926
44.8400 43.263
44.8600 42.752
44.8800 40.526
44.9000 38.860
44.9200 40.039
44.9400 42.719
44.9600 43.892
44.9800 43.377
45.0000 41.277
45.0200 40.696
45.0400 41.503
45.0600 41.261
45.0800 40.603
45.1000 40.155
45.1200 40.132
45.1400 41.725
45.1600 40.620
45.1800 40.257
45.2000 40.681
45.2200 39.496
45.2400 38.743
45.2600 38.490
45.2800 38.560
45.3000 38.594
45.3200 37.592
45.3400 37.391
45.3600 35.993
45.3800 36.567
45.4000 35.510
45.4200 34.599
45.4400 34.879
45.4600 34.712
45.4800 33.601
45.5000 33.596
45.5200 33.387
45.5400 33.087
45.5600 33.038
45.5800 33.000
45.6000 32.790
45.6200 32.181
45.6400 32.269
45.6600 32.928
45.6800 31.548
45.7000 33.323
45.7200 32.578
45.7400 31.956
45.7600 32.200
45.7800 31.617
45.8000 32.609
45.8200 32.213
45.8400 31.799
45.8600 32.315
45.8800 32.126
45.9000 32.101
45.9200 31.646
45.9400 32.338
45.9600 32.261
45.9800 32.525
46.0000 31.924
46.0200 31.927
46.0400 32.218
46.0600 31.653
46.0800 32.570
46.1000 32.121
46.1200 32.479
46.1400 31.886
46.1600 32.669
46.1800 32.721
46.2000 32.073
46.2200 32.075
46.2400 32.904
46.2600 32.750
46.2800 31.499
46.3000 32.201
46.3200 33.390
46.3400 32.731
46.3600 32.329
46.3800 32.880
46.4000 32.985
46.4200 32.293
46.4400 32.667
46.4600 33.394
46.4800 32.675
46.5000 32.644
46.5200 32.728
46.5400 32.641
46.5600 32.688
46.5800 32.450
46.6000 32.546
46.6200 33.024
46.6400 32.755
