'Id: "" Comment: "" Operator: "Lab Manager" Anode: "Cu" Scantype: "Coupled TwoTheta/Theta" TimePerStep: "113.4655" X: "9999" Y: "9999" Z: "-2.700037" 
20.0000 7.498
20.0200 7.139
20.0400 7.402
20.0600 7.579
20.0800 7.001
20.1000 7.249
20.1200 7.061
20.1400 7.013
20.1600 7.362
20.1800 7.443
20.2000 7.619
20.2200 7.694
20.2400 7.240
20.2600 7.577
20.2800 7.437
20.3000 7.623
20.3200 7.302
20.3400 7.286
20.3600 7.519
20.3800 7.708
20.4000 7.645
20.4200 7.544
20.4400 7.789
20.4600 8.168
20.4800 7.900
20.5000 7.505
20.5200 7.819
20.5400 7.764
20.5600 8.208
20.5800 7.586
20.6000 7.864
20.6200 7.890
20.6400 8.217
20.6600 8.017
20.6800 7.687
20.7000 8.257
20.7200 8.486
20.7400 7.957
20.7600 7.927
20.7800 7.962
20.8000 8.141
20.8200 8.318
20.8400 8.090
20.8600 8.139
20.8800 8.482
20.9000 8.276
20.9200 8.417
20.9400 8.114
20.9600 8.422
20.9800 7.950
21.0000 7.928
21.0200 8.074
21.0400 8.152
21.0600 8.094
21.0800 8.199
21.1000 8.642
21.1200 8.184
21.1400 8.996
21.1600 8.474
21.1800 8.426
21.2000 8.512
21.2200 8.508
21.2400 8.458
21.2600 8.683
21.2800 8.661
21.3000 8.563
21.3200 8.457
21.3400 8.493
21.3600 8.346
21.3800 8.723
21.4000 8.948
21.4200 8.650
21.4400 8.593
21.4600 8.457
21.4800 8.360
21.5000 8.996
21.5200 8.502
21.5400 8.789
21.5600 8.652
21.5800 8.579
21.6000 8.891
21.6200 8.785
21.6400 8.985
21.6600 8.463
21.6800 8.465
21.7000 9.231
21.7200 8.489
21.7400 9.085
21.7600 9.543
21.7800 9.177
21.8000 8.750
21.8200 8.552
21.8400 9.346
21.8600 9.268
21.8800 9.116
21.9000 9.296
21.9200 9.452
21.9400 8.977
21.9600 9.356
21.9800 8.863
22.0000 8.700
22.0200 8.881
22.0400 8.932
22.0600 8.956
22.0800 9.014
22.1000 8.951
22.1200 9.134
22.1400 9.506
22.1600 9.415
22.1800 9.037
22.2000 9.269
22.2200 8.989
22.2400 9.651
22.2600 9.267
22.2800 9.421
22.3000 8.839
22.3200 9.358
22.3400 9.560
22.3600 9.117
22.3800 9.606
22.4000 9.441
22.4200 9.593
22.4400 9.469
22.4600 9.466
22.4800 9.510
22.5000 9.455
22.5200 9.289
22.5400 9.787
22.5600 9.424
22.5800 9.206
22.6000 9.041
22.6200 9.503
22.6400 9.708
22.6600 9.992
22.6800 9.935
22.7000 9.598
22.7200 9.487
22.7400 9.633
22.7600 9.731
22.7800 9.897
22.8000 9.849
22.8200 9.577
22.8400 9.564
22.8600 10.045
22.8800 9.346
22.9000 9.727
22.9200 9.614
22.9400 9.777
22.9600 9.592
22.9800 9.936
23.0000 9.801
23.0200 9.997
23.0400 9.567
23.0600 9.648
23.0800 9.953
23.1000 9.642
23.1200 9.738
23.1400 9.762
23.1600 9.792
23.1800 9.875
23.2000 9.671
23.2200 10.319
23.2400 10.265
23.2600 10.105
23.2800 10.482
23.3000 10.296
23.3200 9.911
23.3400 9.544
23.3600 9.833
23.3800 9.903
23.4000 10.133
23.4200 10.342
23.4400 10.405
23.4600 10.037
23.4800 10.375
23.5000 10.174
23.5200 10.466
23.5400 10.249
23.5600 10.409
23.5800 10.379
23.6000 10.145
23.6200 10.184
23.6400 10.376
23.6600 10.074
23.6800 10.434
23.7000 9.984
23.7200 10.193
23.7400 10.613
23.7600 10.513
23.7800 10.315
23.8000 10.381
23.8200 10.597
23.8400 10.730
23.8600 10.042
23.8800 10.381
23.9000 10.290
23.9200 10.017
23.9400 10.759
23.9600 10.579
23.9800 10.706
24.0000 10.545
24.0200 10.522
24.0400 10.299
24.0600 10.381
24.0800 11.036
24.1000 10.619
24.1200 10.681
24.1400 10.702
24.1600 10.884
24.1800 11.115
24.2000 10.717
24.2200 10.980
24.2400 10.549
24.2600 10.462
24.2800 10.509
24.3000 10.719
24.3200 10.329
24.3400 10.667
24.3600 11.013
24.3800 11.332
24.4000 10.916
24.4200 11.616
24.4400 11.280
24.4600 10.794
24.4800 11.167
24.5000 11.044
24.5200 10.985
24.5400 10.389
24.5600 10.336
24.5800 11.138
24.6000 11.076
24.6200 10.812
24.6400 11.320
24.6600 11.392
24.6800 10.708
24.7000 10.672
24.7200 11.366
24.7400 11.550
24.7600 11.041
24.7800 11.834
24.8000 11.195
24.8200 10.961
24.8400 11.442
24.8600 11.644
24.8800 11.722
24.9000 11.502
24.9200 11.363
24.9400 11.292
24.9600 11.206
24.9800 11.164
25.0000 11.584
25.0200 11.803
25.0400 11.393
25.0600 11.603
25.0800 11.406
25.1000 11.239
25.1200 11.265
25.1400 11.458
25.1600 11.269
25.1800 11.440
25.2000 11.717
25.2200 11.537
25.2400 11.355
25.2600 11.298
25.2800 11.412
25.3000 11.164
25.3200 11.790
25.3400 11.739
25.3600 12.041
25.3800 11.825
25.4000 11.811
25.4200 11.261
25.4400 11.207
25.4600 11.502
25.4800 11.689
25.5000 11.516
25.5200 11.563
25.5400 11.350
25.5600 12.062
25.5800 12.000
25.6000 11.240
25.6200 11.505
25.6400 11.957
25.6600 12.051
25.6800 12.459
25.7000 11.777
25.7200 11.649
25.7400 11.882
25.7600 12.453
25.7800 11.823
25.8000 12.237
25.8200 12.152
25.8400 12.242
25.8600 12.083
25.8800 11.882
25.9000 12.282
25.9200 11.667
25.9400 11.423
25.9600 11.547
25.9800 11.281
26.0000 12.264
26.0200 12.516
26.0400 11.934
26.0600 11.697
26.0800 12.113
26.1000 12.191
26.1200 12.364
26.1400 12.098
26.1600 12.402
26.1800 12.329
26.2000 12.134
26.2200 12.009
26.2400 12.379
26.2600 12.183
26.2800 12.707
26.3000 12.207
26.3200 11.941
26.3400 12.722
26.3600 12.703
26.3800 12.195
26.4000 12.150
26.4200 12.581
26.4400 12.005
26.4600 12.069
26.4800 12.450
26.5000 12.866
26.5200 12.712
26.5400 12.697
26.5600 12.528
26.5800 12.144
26.6000 12.810
26.6200 13.305
26.6400 12.663
26.6600 12.783
26.6800 12.439
26.7000 12.665
26.7200 12.693
26.7400 12.729
26.7600 12.714
26.7800 12.645
26.8000 12.662
26.8200 12.344
26.8400 13.281
26.8600 13.144
26.8800 12.377
26.9000 12.481
26.9200 12.919
26.9400 13.079
26.9600 12.766
26.9800 12.839
27.0000 12.769
27.0200 13.000
27.0400 13.260
27.0600 13.534
27.0800 13.512
27.1000 12.363
27.1200 13.245
27.1400 13.455
27.1600 12.899
27.1800 12.683
27.2000 13.009
27.2200 13.243
27.2400 13.252
27.2600 12.828
27.2800 13.218
27.3000 12.786
27.3200 12.878
27.3400 13.128
27.3600 13.039
27.3800 12.979
27.4000 13.353
27.4200 13.311
27.4400 13.210
27.4600 12.514
27.4800 13.547
27.5000 13.752
27.5200 13.212
27.5400 13.462
27.5600 13.051
27.5800 13.444
27.6000 13.717
27.6200 13.419
27.6400 13.649
27.6600 13.130
27.6800 13.714
27.7000 13.605
27.7200 13.771
27.7400 13.605
27.7600 13.734
27.7800 13.419
27.8000 13.357
27.8200 13.328
27.8400 13.583
27.8600 13.232
27.8800 13.413
27.9000 13.660
27.9200 13.507
27.9400 14.241
27.9600 13.553
27.9800 13.851
28.0000 14.036
28.0200 14.164
28.0400 13.936
28.0600 13.806
28.0800 13.476
28.1000 13.623
28.1200 13.772
28.1400 13.905
28.1600 13.919
28.1800 14.033
28.2000 13.643
28.2200 13.981
28.2400 13.859
28.2600 13.954
28.2800 13.826
28.3000 13.857
28.3200 14.016
28.3400 14.320
28.3600 14.098
28.3800 14.165
28.4000 14.374
28.4200 14.186
28.4400 14.448
28.4600 14.222
28.4800 14.262
28.5000 14.787
28.5200 14.393
28.5400 14.735
28.5600 14.545
28.5800 14.676
28.6000 13.974
28.6200 14.293
28.6400 14.126
28.6600 14.140
28.6800 14.157
28.7000 14.255
28.7200 13.700
28.7400 14.337
28.7600 14.256
28.7800 14.272
28.8000 14.530
28.8200 14.288
28.8400 15.561
28.8600 14.645
28.8800 14.604
28.9000 14.146
28.9200 14.656
28.9400 14.176
28.9600 14.582
28.9800 14.813
29.0000 14.688
29.0200 14.906
29.0400 14.569
29.0600 14.625
29.0800 14.703
29.1000 14.937
29.1200 15.247
29.1400 14.196
29.1600 14.838
29.1800 14.716
29.2000 15.531
29.2200 15.027
29.2400 15.159
29.2600 14.801
29.2800 15.223
29.3000 14.885
29.3200 14.720
29.3400 15.040
29.3600 15.431
29.3800 15.287
29.4000 14.735
29.4200 15.012
29.4400 14.596
29.4600 15.279
29.4800 15.327
29.5000 15.293
29.5200 15.241
29.5400 15.464
29.5600 15.176
29.5800 15.800
29.6000 15.195
29.6200 15.721
29.6400 16.661
29.6600 16.238
29.6800 16.001
29.7000 16.101
29.7200 16.332
29.7400 15.773
29.7600 15.918
29.7800 15.890
29.8000 15.873
29.8200 15.899
29.8400 15.807
29.8600 15.929
29.8800 15.587
29.9000 15.306
29.9200 15.728
29.9400 15.455
29.9600 15.482
29.9800 15.976
30.0000 15.761
30.0200 15.808
30.0400 16.039
30.0600 16.345
30.0800 16.328
30.1000 16.304
30.1200 15.088
30.1400 15.776
30.1600 16.127
30.1800 15.730
30.2000 15.907
30.2200 15.638
30.2400 15.876
30.2600 15.942
30.2800 15.863
30.3000 16.030
30.3200 16.025
30.3400 16.158
30.3600 16.105
30.3800 16.342
30.4000 15.942
30.4200 16.248
30.4400 16.010
30.4600 15.721
30.4800 15.631
30.5000 15.848
30.5200 15.623
30.5400 15.453
30.5600 15.473
30.5800 16.066
30.6000 15.803
30.6200 15.835
30.6400 16.074
30.6600 16.468
30.6800 16.415
30.7000 16.059
30.7200 16.307
30.7400 16.547
30.7600 17.413
30.7800 16.653
30.8000 16.730
30.8200 16.291
30.8400 15.515
30.8600 16.367
30.8800 16.820
30.9000 16.683
30.9200 16.658
30.9400 16.305
30.9600 16.761
30.9800 16.272
31.0000 16.456
31.0200 16.623
31.0400 16.675
31.0600 16.465
31.0800 16.774
31.1000 16.473
31.1200 16.646
31.1400 17.019
31.1600 16.494
31.1800 16.412
31.2000 16.514
31.2200 16.529
31.2400 17.235
31.2600 17.023
31.2800 17.405
31.3000 16.934
31.3200 16.544
31.3400 17.243
31.3600 16.795
31.3800 16.924
31.4000 16.479
31.4200 17.058
31.4400 16.625
31.4600 16.657
31.4800 17.255
31.5000 16.635
31.5200 16.906
31.5400 16.700
31.5600 17.341
31.5800 17.283
31.6000 16.975
31.6200 17.465
31.6400 17.111
31.6600 17.685
31.6800 17.245
31.7000 17.181
31.7200 17.293
31.7400 17.225
31.7600 16.960
31.7800 17.209
31.8000 17.290
31.8200 17.090
31.8400 16.766
31.8600 17.288
31.8800 17.650
31.9000 17.236
31.9200 17.635
31.9400 17.420
31.9600 17.548
31.9800 17.133
32.0000 17.364
32.0200 17.430
32.0400 17.600
32.0600 17.416
32.0800 17.986
32.1000 17.438
32.1200 17.068
32.1400 18.214
32.1600 17.683
32.1800 17.889
32.2000 17.817
32.2200 17.705
32.2400 17.958
32.2600 17.256
32.2800 17.550
32.3000 17.765
32.3200 18.051
32.3400 18.008
32.3600 17.514
32.3800 17.816
32.4000 17.902
32.4200 18.198
32.4400 17.510
32.4600 17.469
32.4800 18.136
32.5000 18.292
32.5200 18.674
32.5400 17.988
32.5600 17.889
32.5800 18.474
32.6000 17.275
32.6200 17.674
32.6400 17.893
32.6600 18.237
32.6800 18.087
32.7000 18.451
32.7200 18.466
32.7400 18.398
32.7600 18.794
32.7800 18.053
32.8000 18.086
32.8200 17.421
32.8400 18.317
32.8600 18.040
32.8800 18.592
32.9000 18.358
32.9200 17.905
32.9400 18.139
32.9600 18.318
32.9800 19.110
33.0000 18.849
33.0200 18.117
33.0400 18.560
33.0600 18.965
33.0800 18.612
33.1000 18.350
33.1200 19.208
33.1400 18.569
33.1600 18.199
33.1800 19.164
33.2000 18.694
33.2200 18.298
33.2400 18.511
33.2600 17.945
33.2800 18.738
33.3000 18.446
33.3200 18.528
33.3400 18.924
33.3600 18.547
33.3800 19.224
33.4000 18.714
33.4200 18.494
33.4400 18.701
33.4600 18.681
33.4800 18.867
33.5000 18.930
33.5200 19.071
33.5400 19.132
33.5600 19.196
33.5800 19.509
33.6000 19.735
33.6200 18.701
33.6400 18.921
33.6600 19.100
33.6800 19.347
33.7000 19.491
33.7200 19.547
33.7400 19.472
33.7600 19.544
33.7800 19.192
33.8000 19.238
33.8200 18.844
33.8400 18.607
33.8600 18.895
33.8800 19.503
33.9000 19.887
33.9200 19.425
33.9400 19.548
33.9600 20.074
33.9800 19.096
34.0000 19.762
34.0200 19.441
34.0400 19.919
34.0600 20.293
34.0800 20.184
34.1000 19.770
34.1200 19.344
34.1400 19.726
34.1600 20.212
34.1800 20.261
34.2000 20.384
34.2200 19.762
34.2400 18.980
34.2600 19.351
34.2800 19.399
34.3000 20.275
34.3200 20.371
34.3400 20.479
34.3600 20.190
34.3800 20.735
34.4000 19.894
34.4200 20.272
34.4400 20.616
34.4600 20.428
34.4800 19.965
34.5000 20.358
34.5200 19.799
34.5400 20.554
34.5600 20.450
34.5800 20.080
34.6000 20.214
34.6200 20.257
34.6400 20.156
34.6600 20.781
34.6800 20.534
34.7000 19.985
34.7200 20.639
34.7400 20.035
34.7600 20.030
34.7800 19.475
34.8000 21.209
34.8200 21.097
34.8400 21.863
34.8600 20.377
34.8800 21.378
34.9000 21.943
34.9200 21.925
34.9400 22.895
34.9600 23.454
34.9800 23.378
35.0000 22.589
35.0200 22.861
35.0400 23.197
35.0600 22.744
35.0800 22.038
35.1000 21.663
35.1200 22.555
35.1400 22.656
35.1600 22.322
35.1800 21.645
35.2000 20.510
35.2200 20.805
35.2400 21.245
35.2600 20.898
35.2800 20.675
35.3000 20.627
35.3200 21.235
35.3400 21.220
35.3600 21.108
35.3800 21.100
35.4000 21.164
35.4200 20.699
35.4400 21.250
35.4600 21.129
35.4800 21.407
35.5000 20.850
35.5200 21.507
35.5400 21.515
35.5600 21.588
35.5800 21.381
35.6000 21.865
35.6200 21.351
35.6400 20.808
35.6600 21.689
35.6800 21.486
35.7000 21.090
35.7200 20.815
35.7400 20.971
35.7600 21.222
35.7800 20.742
35.8000 21.355
35.8200 21.631
35.8400 21.515
35.8600 21.510
35.8800 22.095
35.9000 21.735
35.9200 21.768
35.9400 22.051
35.9600 21.934
35.9800 21.240
36.0000 21.786
36.0200 21.269
36.0400 21.389
36.0600 21.223
36.0800 22.037
36.1000 21.231
36.1200 21.965
36.1400 21.591
36.1600 21.931
36.1800 21.491
36.2000 21.592
36.2200 22.064
36.2400 21.969
36.2600 21.438
36.2800 21.564
36.3000 22.049
36.3200 21.706
36.3400 21.890
36.3600 21.595
36.3800 22.345
36.4000 22.371
36.4200 22.772
36.4400 22.072
36.4600 22.538
36.4800 21.581
36.5000 22.194
36.5200 22.249
36.5400 22.284
36.5600 22.313
36.5800 22.909
36.6000 22.505
36.6200 22.954
36.6400 23.233
36.6600 22.749
36.6800 23.307
36.7000 23.159
36.7200 22.901
36.7400 23.172
36.7600 23.024
36.7800 23.508
36.8000 22.588
36.8200 22.942
36.8400 22.781
36.8600 22.750
36.8800 23.635
36.9000 23.337
36.9200 22.843
36.9400 22.555
36.9600 22.616
36.9800 23.443
37.0000 23.880
37.0200 24.100
37.0400 23.945
37.0600 24.484
37.0800 24.155
37.1000 23.001
37.1200 23.484
37.1400 23.638
37.1600 23.764
37.1800 23.559
37.2000 23.507
37.2200 23.309
37.2400 24.444
37.2600 24.520
37.2800 23.980
37.3000 24.205
37.3200 24.105
37.3400 24.380
37.3600 23.529
37.3800 23.706
37.4000 24.253
37.4200 24.403
37.4400 24.510
37.4600 24.348
37.4800 24.621
37.5000 24.710
37.5200 24.519
37.5400 24.527
37.5600 24.409
37.5800 24.408
37.6000 24.437
37.6200 24.098
37.6400 24.497
37.6600 24.356
37.6800 24.244
37.7000 24.928
37.7200 23.867
37.7400 24.029
37.7600 24.328
37.7800 24.223
37.8000 24.918
37.8200 24.130
37.8400 24.489
37.8600 24.165
37.8800 24.780
37.9000 25.319
37.9200 24.691
37.9400 25.023
37.9600 25.192
37.9800 25.298
38.0000 24.751
38.0200 25.066
38.0400 24.851
38.0600 24.330
38.0800 24.940
38.1000 24.675
38.1200 25.026
38.1400 25.389
38.1600 25.428
38.1800 26.046
38.2000 25.018
38.2200 24.877
38.2400 25.526
38.2600 25.174
38.2800 25.897
38.3000 25.886
38.3200 25.403
38.3400 25.201
38.3600 25.997
38.3800 25.159
38.4000 25.497
38.4200 25.450
38.4400 25.945
38.4600 25.529
38.4800 26.022
38.5000 25.707
38.5200 26.089
38.5400 25.910
38.5600 26.080
38.5800 25.596
38.6000 26.206
38.6200 26.664
38.6400 26.140
38.6600 26.314
38.6800 26.396
38.7000 25.824
38.7200 25.863
38.7400 25.342
38.7600 25.154
38.7800 25.929
38.8000 25.569
38.8200 26.913
38.8400 26.260
38.8600 25.253
38.8800 25.382
38.9000 25.888
38.9200 26.350
38.9400 26.692
38.9600 26.630
38.9800 27.361
39.0000 26.887
39.0200 26.330
39.0400 26.767
39.0600 26.313
39.0800 25.507
39.1000 26.165
39.1200 26.575
39.1400 27.312
39.1600 25.872
39.1800 26.259
39.2000 27.022
39.2200 26.330
39.2400 26.811
39.2600 27.461
39.2800 26.583
39.3000 26.187
39.3200 26.754
39.3400 26.761
39.3600 26.757
39.3800 26.992
39.4000 26.363
39.4200 27.377
39.4400 27.355
39.4600 27.691
39.4800 26.523
39.5000 27.379
39.5200 27.349
39.5400 26.578
39.5600 27.200
39.5800 26.887
39.6000 27.237
39.6200 26.354
39.6400 26.888
39.6600 27.420
39.6800 28.326
39.7000 27.549
39.7200 27.253
39.7400 27.509
39.7600 27.691
39.7800 27.783
39.8000 26.500
39.8200 27.187
39.8400 27.122
39.8600 26.744
39.8800 26.818
39.9000 27.276
39.9200 27.960
39.9400 27.106
39.9600 26.972
39.9800 27.201
40.0000 28.002
40.0200 27.277
40.0400 27.667
40.0600 27.713
40.0800 27.532
40.1000 28.049
40.1200 28.204
40.1400 27.661
40.1600 26.989
40.1800 28.306
40.2000 27.570
40.2200 27.994
40.2400 27.462
40.2600 27.999
40.2800 27.801
40.3000 28.715
40.3200 28.028
40.3400 27.840
40.3600 28.052
40.3800 27.961
40.4000 27.655
40.4200 27.767
40.4400 27.529
40.4600 28.246
40.4800 28.715
40.5000 28.143
40.5200 28.100
40.5400 28.829
40.5600 28.356
40.5800 28.567
40.6000 28.153
40.6200 27.635
40.6400 28.056
40.6600 27.588
40.6800 28.091
40.7000 28.014
40.7200 28.139
40.7400 28.535
40.7600 28.377
40.7800 28.521
40.8000 28.618
40.8200 27.967
40.8400 28.816
40.8600 28.394
40.8800 27.468
40.9000 28.121
40.9200 28.576
40.9400 28.421
40.9600 28.078
40.9800 28.367
41.0000 28.159
41.0200 28.089
41.0400 28.421
41.0600 28.290
41.0800 28.566
41.1000 28.627
41.1200 28.439
41.1400 28.627
41.1600 28.661
41.1800 28.772
41.2000 28.547
41.2200 28.249
41.2400 27.988
41.2600 29.179
41.2800 29.259
41.3000 29.398
41.3200 29.306
41.3400 28.337
41.3600 27.986
41.3800 28.557
41.4000 28.781
41.4200 28.365
41.4400 29.736
41.4600 28.722
41.4800 28.480
41.5000 29.222
41.5200 28.809
41.5400 29.076
41.5600 29.158
41.5800 28.906
41.6000 29.759
41.6200 29.243
41.6400 29.155
41.6600 28.340
41.6800 29.012
41.7000 28.744
41.7200 29.203
41.7400 28.486
41.7600 28.257
41.7800 29.114
41.8000 29.592
41.8200 30.131
41.8400 29.191
41.8600 28.918
41.8800 29.200
41.9000 29.026
41.9200 28.264
41.9400 28.804
41.9600 29.230
41.9800 29.908
42.0000 28.963
42.0200 29.131
42.0400 29.663
42.0600 28.786
42.0800 29.269
42.1000 30.078
42.1200 30.193
42.1400 29.410
42.1600 29.540
42.1800 29.770
42.2000 29.957
42.2200 29.889
42.2400 30.980
42.2600 30.514
42.2800 29.840
42.3000 30.350
42.3200 29.252
42.3400 30.308
42.3600 30.261
42.3800 29.861
42.4000 30.430
42.4200 30.443
42.4400 30.643
42.4600 30.444
42.4800 31.225
42.5000 31.335
42.5200 30.682
42.5400 31.018
42.5600 31.141
42.5800 31.609
42.6000 31.809
42.6200 31.288
42.6400 31.830
42.6600 31.625
42.6800 30.983
42.7000 31.318
42.7200 31.571
42.7400 30.695
42.7600 30.221
42.7800 31.621
42.8000 30.089
42.8200 30.379
42.8400 30.255
42.8600 30.685
42.8800 30.446
42.9000 30.078
42.9200 29.977
42.9400 30.071
42.9600 30.431
42.9800 30.175
43.0000 30.498
43.0200 30.422
43.0400 30.356
43.0600 30.705
43.0800 30.727
43.1000 29.753
43.1200 31.229
43.1400 31.175
43.1600 31.051
43.1800 30.525
43.2000 30.287
43.2200 30.442
43.2400 30.734
43.2600 30.302
43.2800 29.830
43.3000 30.624
43.3200 31.264
43.3400 31.127
43.3600 31.090
43.3800 29.981
43.4000 30.424
43.4200 30.846
43.4400 31.140
43.4600 30.214
43.4800 30.732
43.5000 30.600
43.5200 29.871
43.5400 29.836
43.5600 30.801
43.5800 30.579
43.6000 31.406
43.6200 31.438
43.6400 31.408
43.6600 31.443
43.6800 31.679
43.7000 31.546
43.7200 31.845
43.7400 31.438
43.7600 31.589
43.7800 32.312
43.8000 32.609
43.8200 32.315
43.8400 32.294
43.8600 32.490
43.8800 32.899
43.9000 33.279
43.9200 32.637
43.9400 32.993
43.9600 34.213
43.9800 34.730
44.0000 35.990
44.0200 37.289
44.0400 40.030
44.0600 45.062
44.0800 49.298
44.1000 54.742
44.1200 58.416
44.1400 60.684
44.1600 61.226
44.1800 58.502
44.2000 57.463
44.2200 55.440
44.2400 53.159
44.2600 52.064
44.2800 48.719
44.3000 45.101
44.3200 41.693
44.3400 38.885
44.3600 37.584
44.3800 36.142
44.4000 34.933
44.4200 33.863
44.4400 33.248
44.4600 32.764
44.4800 32.456
44.5000 32.105
44.5200 32.783
44.5400 32.514
44.5600 33.184
44.5800 32.838
44.6000 31.934
44.6200 31.368
44.6400 32.179
44.6600 32.717
44.6800 32.146
44.7000 32.000
44.7200 32.595
44.7400 33.066
44.7600 33.390
44.7800 36.257
44.8000 39.387
44.8200 42.195
44.8400 41.947
44.8600 40.536
44.8800 40.217
44.9000 40.315
44.9200 41.105
44.9400 42.717
44.9600 42.196
44.9800 40.155
45.0000 41.806
45.0200 41.471
45.0400 41.750
45.0600 40.672
45.0800 40.666
45.1000 40.514
45.1200 40.519
45.1400 40.540
45.1600 40.884
45.1800 39.984
45.2000 40.121
45.2200 40.412
45.2400 40.054
45.2600 38.704
45.2800 37.903
45.3000 37.837
45.3200 36.746
45.3400 36.877
45.3600 35.958
45.3800 35.874
45.4000 35.338
45.4200 35.021
45.4400 34.106
45.4600 33.961
45.4800 33.172
45.5000 33.328
45.5200 32.458
45.5400 32.191
45.5600 32.235
45.5800 32.269
45.6000 32.485
45.6200 32.361
45.6400 32.539
45.6600 31.862
45.6800 32.346
45.7000 32.004
45.7200 31.840
45.7400 31.977
45.7600 32.304
45.7800 32.159
45.8000 32.457
45.8200 31.945
45.8400 31.768
45.8600 31.970
45.8800 32.697
45.9000 32.654
45.9200 31.512
45.9400 31.813
45.9600 31.442
45.9800 32.326
46.0000 32.304
46.0200 32.518
46.0400 32.248
46.0600 32.671
46.0800 32.198
46.1000 31.818
46.1200 32.309
46.1400 32.088
46.1600 32.252
46.1800 31.873
46.2000 32.879
46.2200 31.892
46.2400 32.595
46.2600 32.583
46.2800 31.771
46.3000 33.079
46.3200 32.404
46.3400 33.089
46.3600 32.325
46.3800 32.568
46.4000 32.538
46.4200 32.203
46.4400 32.681
46.4600 32.613
46.4800 32.278
46.5000 31.789
46.5200 33.187
46.5400 32.340
46.5600 32.756
46.5800 33.150
46.6000 33.115
46.6200 32.663
46.6400 32.376
46.6600 32.046
