'Id: "" Comment: "" Operator: "Lab Manager" Anode: "Cu" Scantype: "Coupled TwoTheta/Theta" TimePerStep: "113.4657" X: "9999" Y: "9999" Z: "-2.700037" 
20.0000 5.953
20.0200 5.906
20.0400 6.186
20.0600 6.437
20.0800 5.936
20.1000 6.467
20.1200 6.021
20.1400 6.276
20.1600 6.328
20.1800 6.458
20.2000 6.511
20.2200 6.259
20.2400 6.357
20.2600 6.307
20.2800 6.239
20.3000 6.327
20.3200 6.428
20.3400 6.336
20.3600 6.195
20.3800 6.401
20.4000 6.143
20.4200 6.981
20.4400 6.180
20.4600 6.244
20.4800 6.637
20.5000 6.502
20.5200 6.094
20.5400 6.363
20.5600 6.344
20.5800 6.579
20.6000 6.395
20.6200 6.556
20.6400 6.591
20.6600 6.324
20.6800 6.209
20.7000 6.244
20.7200 6.507
20.7400 6.919
20.7600 6.698
20.7800 6.736
20.8000 6.975
20.8200 7.151
20.8400 6.924
20.8600 6.847
20.8800 6.887
20.9000 6.914
20.9200 7.016
20.9400 7.111
20.9600 6.859
20.9800 6.490
21.0000 7.344
21.0200 6.687
21.0400 6.814
21.0600 6.948
21.0800 6.966
21.1000 7.182
21.1200 6.999
21.1400 7.058
21.1600 7.025
21.1800 7.478
21.2000 7.068
21.2200 6.995
21.2400 7.235
21.2600 7.471
21.2800 7.197
21.3000 7.276
21.3200 7.445
21.3400 7.227
21.3600 6.787
21.3800 7.418
21.4000 7.742
21.4200 7.527
21.4400 7.668
21.4600 7.544
21.4800 7.516
21.5000 7.765
21.5200 7.834
21.5400 7.690
21.5600 7.648
21.5800 7.587
21.6000 7.647
21.6200 7.586
21.6400 7.703
21.6600 7.639
21.6800 7.775
21.7000 7.697
21.7200 7.316
21.7400 7.647
21.7600 7.578
21.7800 8.059
21.8000 7.855
21.8200 8.036
21.8400 8.273
21.8600 8.167
21.8800 8.072
21.9000 7.595
21.9200 8.030
21.9400 7.885
21.9600 7.646
21.9800 7.983
22.0000 8.586
22.0200 7.452
22.0400 7.968
22.0600 7.675
22.0800 8.460
22.1000 7.969
22.1200 8.183
22.1400 8.153
22.1600 8.071
22.1800 8.537
22.2000 8.222
22.2200 8.098
22.2400 8.249
22.2600 8.190
22.2800 8.359
22.3000 8.160
22.3200 8.408
22.3400 8.592
22.3600 8.475
22.3800 8.512
22.4000 8.555
22.4200 8.631
22.4400 8.417
22.4600 8.586
22.4800 8.672
22.5000 8.868
22.5200 8.442
22.5400 8.929
22.5600 8.332
22.5800 8.583
22.6000 8.683
22.6200 8.568
22.6400 8.815
22.6600 8.674
22.6800 8.420
22.7000 8.381
22.7200 8.521
22.7400 8.993
22.7600 8.779
22.7800 8.747
22.8000 8.864
22.8200 8.804
22.8400 8.740
22.8600 8.718
22.8800 8.986
22.9000 8.735
22.9200 8.595
22.9400 8.954
22.9600 9.324
22.9800 9.117
23.0000 9.196
23.0200 8.730
23.0400 9.023
23.0600 9.785
23.0800 8.967
23.1000 9.523
23.1200 8.996
23.1400 9.338
23.1600 9.474
23.1800 9.144
23.2000 9.801
23.2200 9.461
23.2400 9.581
23.2600 9.060
23.2800 9.124
23.3000 9.367
23.3200 9.244
23.3400 9.300
23.3600 9.254
23.3800 9.524
23.4000 9.473
23.4200 9.968
23.4400 9.506
23.4600 10.023
23.4800 9.535
23.5000 9.599
23.5200 9.265
23.5400 9.358
23.5600 9.231
23.5800 9.366
23.6000 9.752
23.6200 9.668
23.6400 9.691
23.6600 9.672
23.6800 9.700
23.7000 10.235
23.7200 9.671
23.7400 9.865
23.7600 9.478
23.7800 9.627
23.8000 9.932
23.8200 9.572
23.8400 9.961
23.8600 10.042
23.8800 10.014
23.9000 10.105
23.9200 10.018
23.9400 9.604
23.9600 9.226
23.9800 10.094
24.0000 9.721
24.0200 10.463
24.0400 10.213
24.0600 10.366
24.0800 9.826
24.1000 9.878
24.1200 10.357
24.1400 10.069
24.1600 9.991
24.1800 10.361
24.2000 9.953
24.2200 10.262
24.2400 10.294
24.2600 10.096
24.2800 10.554
24.3000 10.108
24.3200 10.233
24.3400 10.768
24.3600 10.334
24.3800 10.883
24.4000 10.780
24.4200 10.826
24.4400 10.493
24.4600 10.398
24.4800 10.857
24.5000 11.071
24.5200 10.357
24.5400 10.642
24.5600 10.841
24.5800 10.874
24.6000 10.890
24.6200 10.641
24.6400 10.512
24.6600 10.898
24.6800 11.054
24.7000 10.806
24.7200 10.769
24.7400 10.721
24.7600 10.305
24.7800 11.109
24.8000 11.000
24.8200 10.882
24.8400 11.368
24.8600 10.978
24.8800 11.256
24.9000 11.018
24.9200 11.285
24.9400 11.121
24.9600 10.633
24.9800 11.044
25.0000 11.659
25.0200 11.438
25.0400 10.929
25.0600 11.356
25.0800 11.225
25.1000 11.383
25.1200 11.180
25.1400 10.722
25.1600 10.909
25.1800 11.596
25.2000 11.051
25.2200 10.852
25.2400 11.379
25.2600 11.036
25.2800 10.869
25.3000 11.106
25.3200 10.838
25.3400 11.368
25.3600 11.450
25.3800 11.380
25.4000 11.254
25.4200 11.348
25.4400 11.486
25.4600 11.593
25.4800 11.448
25.5000 11.237
25.5200 11.879
25.5400 11.658
25.5600 11.304
25.5800 11.339
25.6000 11.795
25.6200 11.664
25.6400 11.976
25.6600 11.415
25.6800 11.783
25.7000 11.969
25.7200 11.542
25.7400 12.074
25.7600 12.233
25.7800 12.097
25.8000 12.309
25.8200 11.876
25.8400 12.369
25.8600 11.945
25.8800 11.277
25.9000 11.769
25.9200 11.741
25.9400 11.799
25.9600 11.736
25.9800 11.877
26.0000 11.880
26.0200 12.035
26.0400 11.751
26.0600 12.218
26.0800 12.423
26.1000 11.803
26.1200 12.438
26.1400 12.246
26.1600 12.127
26.1800 12.370
26.2000 11.973
26.2200 12.350
26.2400 11.863
26.2600 12.126
26.2800 12.520
26.3000 12.598
26.3200 11.785
26.3400 11.732
26.3600 11.771
26.3800 12.234
26.4000 11.736
26.4200 12.374
26.4400 12.609
26.4600 12.023
26.4800 12.094
26.5000 12.635
26.5200 12.548
26.5400 12.093
26.5600 12.053
26.5800 12.708
26.6000 12.320
26.6200 12.119
26.6400 12.282
26.6600 12.693
26.6800 12.305
26.7000 12.546
26.7200 12.653
26.7400 12.670
26.7600 13.079
26.7800 12.851
26.8000 12.574
26.8200 12.422
26.8400 12.509
26.8600 12.583
26.8800 12.603
26.9000 12.835
26.9200 12.119
26.9400 12.944
26.9600 12.812
26.9800 13.210
27.0000 12.674
27.0200 12.784
27.0400 12.490
27.0600 13.022
27.0800 12.671
27.1000 12.926
27.1200 13.070
27.1400 12.311
27.1600 13.073
27.1800 12.764
27.2000 12.702
27.2200 12.755
27.2400 12.916
27.2600 13.222
27.2800 13.054
27.3000 13.225
27.3200 13.187
27.3400 13.530
27.3600 13.429
27.3800 12.560
27.4000 12.518
27.4200 13.005
27.4400 13.558
27.4600 13.045
27.4800 13.211
27.5000 13.738
27.5200 13.514
27.5400 13.174
27.5600 13.087
27.5800 12.998
27.6000 12.987
27.6200 12.696
27.6400 13.314
27.6600 13.580
27.6800 13.123
27.7000 13.311
27.7200 13.657
27.7400 13.268
27.7600 13.349
27.7800 12.880
27.8000 12.886
27.8200 13.168
27.8400 13.697
27.8600 13.200
27.8800 13.424
27.9000 13.976
27.9200 13.181
27.9400 13.467
27.9600 13.771
27.9800 13.766
28.0000 13.840
28.0200 13.817
28.0400 14.066
28.0600 13.536
28.0800 13.319
28.1000 14.056
28.1200 13.869
28.1400 13.293
28.1600 13.871
28.1800 13.935
28.2000 14.487
28.2200 13.420
28.2400 14.181
28.2600 13.670
28.2800 13.809
28.3000 13.768
28.3200 14.256
28.3400 14.016
28.3600 14.224
28.3800 13.524
28.4000 14.345
28.4200 13.953
28.4400 13.822
28.4600 13.509
28.4800 13.825
28.5000 13.678
28.5200 13.751
28.5400 14.035
28.5600 14.352
28.5800 13.732
28.6000 14.156
28.6200 14.319
28.6400 13.998
28.6600 13.596
28.6800 14.024
28.7000 14.141
28.7200 14.201
28.7400 15.005
28.7600 14.527
28.7800 14.055
28.8000 14.151
28.8200 14.415
28.8400 14.941
28.8600 14.346
28.8800 14.396
28.9000 14.257
28.9200 14.332
28.9400 14.484
28.9600 14.650
28.9800 14.816
29.0000 14.069
29.0200 14.224
29.0400 14.503
29.0600 14.802
29.0800 14.761
29.1000 14.664
29.1200 14.144
29.1400 14.557
29.1600 14.830
29.1800 14.192
29.2000 14.967
29.2200 14.345
29.2400 14.479
29.2600 14.763
29.2800 14.993
29.3000 14.880
29.3200 14.463
29.3400 15.538
29.3600 14.863
29.3800 15.068
29.4000 14.737
29.4200 15.496
29.4400 14.925
29.4600 14.887
29.4800 14.676
29.5000 15.759
29.5200 14.964
29.5400 15.279
29.5600 15.443
29.5800 15.611
29.6000 16.318
29.6200 16.196
29.6400 16.917
29.6600 16.053
29.6800 16.133
29.7000 16.558
29.7200 16.391
29.7400 16.645
29.7600 15.679
29.7800 15.820
29.8000 15.688
29.8200 15.309
29.8400 15.508
29.8600 15.449
29.8800 15.653
29.9000 15.551
29.9200 15.615
29.9400 15.480
29.9600 15.049
29.9800 14.947
30.0000 15.506
30.0200 15.457
30.0400 15.332
30.0600 15.343
30.0800 15.937
30.1000 15.293
30.1200 15.600
30.1400 15.525
30.1600 16.058
30.1800 15.968
30.2000 14.978
30.2200 15.618
30.2400 15.331
30.2600 15.707
30.2800 16.061
30.3000 15.834
30.3200 15.671
30.3400 15.557
30.3600 15.751
30.3800 15.492
30.4000 15.628
30.4200 15.594
30.4400 15.747
30.4600 15.095
30.4800 15.816
30.5000 16.172
30.5200 15.735
30.5400 15.770
30.5600 15.535
30.5800 15.721
30.6000 16.223
30.6200 16.303
30.6400 16.040
30.6600 15.882
30.6800 15.276
30.7000 15.771
30.7200 15.735
30.7400 16.427
30.7600 16.578
30.7800 15.579
30.8000 16.073
30.8200 15.773
30.8400 15.355
30.8600 15.975
30.8800 16.584
30.9000 16.282
30.9200 15.926
30.9400 16.379
30.9600 16.523
30.9800 15.953
31.0000 16.477
31.0200 15.967
31.0400 16.332
31.0600 16.091
31.0800 16.371
31.1000 16.444
31.1200 16.148
31.1400 16.954
31.1600 17.127
31.1800 16.934
31.2000 16.593
31.2200 16.463
31.2400 16.856
31.2600 16.735
31.2800 16.603
31.3000 17.166
31.3200 16.706
31.3400 16.316
31.3600 16.587
31.3800 16.569
31.4000 16.488
31.4200 16.252
31.4400 15.939
31.4600 17.435
31.4800 16.726
31.5000 16.287
31.5200 17.504
31.5400 17.215
31.5600 16.815
31.5800 16.817
31.6000 16.555
31.6200 16.630
31.6400 16.751
31.6600 16.844
31.6800 17.158
31.7000 16.851
31.7200 16.547
31.7400 16.639
31.7600 16.987
31.7800 16.669
31.8000 17.154
31.8200 17.296
31.8400 16.990
31.8600 17.137
31.8800 17.200
31.9000 17.347
31.9200 16.653
31.9400 17.352
31.9600 16.721
31.9800 17.830
32.0000 17.563
32.0200 17.418
32.0400 17.383
32.0600 17.041
32.0800 17.179
32.1000 17.669
32.1200 17.351
32.1400 17.401
32.1600 17.652
32.1800 17.886
32.2000 17.351
32.2200 17.278
32.2400 17.827
32.2600 17.382
32.2800 16.961
32.3000 17.116
32.3200 17.424
32.3400 17.548
32.3600 17.522
32.3800 17.695
32.4000 17.348
32.4200 17.779
32.4400 18.300
32.4600 17.849
32.4800 17.746
32.5000 17.446
32.5200 17.799
32.5400 18.086
32.5600 17.782
32.5800 17.413
32.6000 17.249
32.6200 18.204
32.6400 17.964
32.6600 17.657
32.6800 17.866
32.7000 17.931
32.7200 17.406
32.7400 18.123
32.7600 18.183
32.7800 18.319
32.8000 17.546
32.8200 18.496
32.8400 18.546
32.8600 18.463
32.8800 18.119
32.9000 17.052
32.9200 18.020
32.9400 18.022
32.9600 18.447
32.9800 17.746
33.0000 18.098
33.0200 18.746
33.0400 18.657
33.0600 18.520
33.0800 18.693
33.1000 17.790
33.1200 17.338
33.1400 18.038
33.1600 19.116
33.1800 18.408
33.2000 18.878
33.2200 18.626
33.2400 18.155
33.2600 18.597
33.2800 18.968
33.3000 18.569
33.3200 18.785
33.3400 18.672
33.3600 19.349
33.3800 19.052
33.4000 18.930
33.4200 19.340
33.4400 19.280
33.4600 18.944
33.4800 18.512
33.5000 18.975
33.5200 18.582
33.5400 18.920
33.5600 18.788
33.5800 19.749
33.6000 18.911
33.6200 18.707
33.6400 19.315
33.6600 18.923
33.6800 18.962
33.7000 19.046
33.7200 18.791
33.7400 18.995
33.7600 18.936
33.7800 18.702
33.8000 19.792
33.8200 19.817
33.8400 19.431
33.8600 19.555
33.8800 19.728
33.9000 19.615
33.9200 19.152
33.9400 19.214
33.9600 19.433
33.9800 20.469
34.0000 19.771
34.0200 19.859
34.0400 19.250
34.0600 19.899
34.0800 19.489
34.1000 19.727
34.1200 20.107
34.1400 19.399
34.1600 19.585
34.1800 19.364
34.2000 19.711
34.2200 19.959
34.2400 19.260
34.2600 19.396
34.2800 19.784
34.3000 19.609
34.3200 19.589
34.3400 19.656
34.3600 19.609
34.3800 19.322
34.4000 20.139
34.4200 19.847
34.4400 20.351
34.4600 19.554
34.4800 19.201
34.5000 19.509
34.5200 19.301
34.5400 20.298
34.5600 19.826
34.5800 20.446
34.6000 20.252
34.6200 20.476
34.6400 19.990
34.6600 21.036
34.6800 20.306
34.7000 20.626
34.7200 20.413
34.7400 20.329
34.7600 20.951
34.7800 20.740
34.8000 20.113
34.8200 20.917
34.8400 22.140
34.8600 22.415
34.8800 22.610
34.9000 22.814
34.9200 23.957
34.9400 23.662
34.9600 23.760
34.9800 23.227
35.0000 23.661
35.0200 23.800
35.0400 22.454
35.0600 23.112
35.0800 22.228
35.1000 21.826
35.1200 21.786
35.1400 21.409
35.1600 21.218
35.1800 21.461
35.2000 21.181
35.2200 21.305
35.2400 20.800
35.2600 20.832
35.2800 20.756
35.3000 21.071
35.3200 21.983
35.3400 20.863
35.3600 21.021
35.3800 20.816
35.4000 20.692
35.4200 20.736
35.4400 21.342
35.4600 21.296
35.4800 21.065
35.5000 21.640
35.5200 21.288
35.5400 21.323
35.5600 21.612
35.5800 20.718
35.6000 21.258
35.6200 21.282
35.6400 21.080
35.6600 21.335
35.6800 21.172
35.7000 21.957
35.7200 21.143
35.7400 21.206
35.7600 20.996
35.7800 21.252
35.8000 21.158
35.8200 21.143
35.8400 21.725
35.8600 21.726
35.8800 21.924
35.9000 21.729
35.9200 21.321
35.9400 22.093
35.9600 21.544
35.9800 21.385
36.0000 21.210
36.0200 21.299
36.0400 21.239
36.0600 22.216
36.0800 21.645
36.1000 21.520
36.1200 21.378
36.1400 21.344
36.1600 21.654
36.1800 21.619
36.2000 21.741
36.2200 21.051
36.2400 21.938
36.2600 21.106
36.2800 21.677
36.3000 22.233
36.3200 21.961
36.3400 21.495
36.3600 21.753
36.3800 21.906
36.4000 22.437
36.4200 22.286
36.4400 22.109
36.4600 22.230
36.4800 21.947
36.5000 22.226
36.5200 22.174
36.5400 22.548
36.5600 22.441
36.5800 22.503
36.6000 22.518
36.6200 22.211
36.6400 22.887
36.6600 21.942
36.6800 22.429
36.7000 22.483
36.7200 22.145
36.7400 22.895
36.7600 22.699
36.7800 23.286
36.8000 22.879
36.8200 22.658
36.8400 22.591
36.8600 23.178
36.8800 22.539
36.9000 22.610
36.9200 23.145
36.9400 22.796
36.9600 23.409
36.9800 23.698
37.0000 22.790
37.0200 22.722
37.0400 23.331
37.0600 22.967
37.0800 23.394
37.1000 23.284
37.1200 24.058
37.1400 23.582
37.1600 23.682
37.1800 23.604
37.2000 23.775
37.2200 24.372
37.2400 23.978
37.2600 23.623
37.2800 23.452
37.3000 23.997
37.3200 23.868
37.3400 24.108
37.3600 23.516
37.3800 23.363
37.4000 24.324
37.4200 24.498
37.4400 23.025
37.4600 23.674
37.4800 23.289
37.5000 23.975
37.5200 24.223
37.5400 24.552
37.5600 24.161
37.5800 24.487
37.6000 24.198
37.6200 24.146
37.6400 23.400
37.6600 23.624
37.6800 24.316
37.7000 24.219
37.7200 24.242
37.7400 24.048
37.7600 23.623
37.7800 24.483
37.8000 24.797
37.8200 24.705
37.8400 24.945
37.8600 24.400
37.8800 24.393
37.9000 25.041
37.9200 25.195
37.9400 24.654
37.9600 24.453
37.9800 24.878
38.0000 24.903
38.0200 24.441
38.0400 25.119
38.0600 24.678
38.0800 25.038
38.1000 25.327
38.1200 24.788
38.1400 24.749
38.1600 24.781
38.1800 25.018
38.2000 25.276
38.2200 24.744
38.2400 25.176
38.2600 25.068
38.2800 24.783
38.3000 25.273
38.3200 25.888
38.3400 25.075
38.3600 25.703
38.3800 25.154
38.4000 24.950
38.4200 25.765
38.4400 25.345
38.4600 25.403
38.4800 25.589
38.5000 25.571
38.5200 25.911
38.5400 25.337
38.5600 24.791
38.5800 25.173
38.6000 26.063
38.6200 25.742
38.6400 25.871
38.6600 25.748
38.6800 26.114
38.7000 25.602
38.7200 25.800
38.7400 25.808
38.7600 25.685
38.7800 25.638
38.8000 26.031
38.8200 26.164
38.8400 25.314
38.8600 25.448
38.8800 25.709
38.9000 25.535
38.9200 25.862
38.9400 25.801
38.9600 26.418
38.9800 25.257
39.0000 25.121
39.0200 26.345
39.0400 25.876
39.0600 26.557
39.0800 26.298
39.1000 26.759
39.1200 26.744
39.1400 25.923
39.1600 26.961
39.1800 26.965
39.2000 25.708
39.2200 25.996
39.2400 25.918
39.2600 26.138
39.2800 26.532
39.3000 26.307
39.3200 26.773
39.3400 26.451
39.3600 26.885
39.3800 26.823
39.4000 26.766
39.4200 27.245
39.4400 25.979
39.4600 26.831
39.4800 27.876
39.5000 26.654
39.5200 27.131
39.5400 27.500
39.5600 27.298
39.5800 26.320
39.6000 26.351
39.6200 26.678
39.6400 27.163
39.6600 26.370
39.6800 26.785
39.7000 27.078
39.7200 26.822
39.7400 26.638
39.7600 26.901
39.7800 27.003
39.8000 26.935
39.8200 27.308
39.8400 27.274
39.8600 27.143
39.8800 27.335
39.9000 27.695
39.9200 27.158
39.9400 28.276
39.9600 26.813
39.9800 27.574
40.0000 25.877
40.0200 26.731
40.0400 26.809
40.0600 27.467
40.0800 26.865
40.1000 27.104
40.1200 27.433
40.1400 27.286
40.1600 26.833
40.1800 26.742
40.2000 26.976
40.2200 27.246
40.2400 26.608
40.2600 26.554
40.2800 27.503
40.3000 28.086
40.3200 27.852
40.3400 28.079
40.3600 27.584
40.3800 27.489
40.4000 27.970
40.4200 28.344
40.4400 27.482
40.4600 27.424
40.4800 27.472
40.5000 27.215
40.5200 28.179
40.5400 28.164
40.5600 27.105
40.5800 27.187
40.6000 28.892
40.6200 27.940
40.6400 27.904
40.6600 28.070
40.6800 27.629
40.7000 27.464
40.7200 28.176
40.7400 27.902
40.7600 27.505
40.7800 28.347
40.8000 28.919
40.8200 28.504
40.8400 28.483
40.8600 27.771
40.8800 27.826
40.9000 27.539
40.9200 27.543
40.9400 27.901
40.9600 27.914
40.9800 28.602
41.0000 28.848
41.0200 28.000
41.0400 28.525
41.0600 28.861
41.0800 28.688
41.1000 28.282
41.1200 28.710
41.1400 28.519
41.1600 27.906
41.1800 28.659
41.2000 28.624
41.2200 28.232
41.2400 28.016
41.2600 29.071
41.2800 28.401
41.3000 28.406
41.3200 28.197
41.3400 28.190
41.3600 28.105
41.3800 28.438
41.4000 27.995
41.4200 27.985
41.4400 28.760
41.4600 28.220
41.4800 28.518
41.5000 28.785
41.5200 28.069
41.5400 29.215
41.5600 28.232
41.5800 28.855
41.6000 28.806
41.6200 28.879
41.6400 28.483
41.6600 28.446
41.6800 28.970
41.7000 29.276
41.7200 28.847
41.7400 29.676
41.7600 28.343
41.7800 29.090
41.8000 29.489
41.8200 28.880
41.8400 28.799
41.8600 28.561
41.8800 29.002
41.9000 29.653
41.9200 29.604
41.9400 28.320
41.9600 29.211
41.9800 29.262
42.0000 29.324
42.0200 29.049
42.0400 29.780
42.0600 29.106
42.0800 29.172
42.1000 29.414
42.1200 29.830
42.1400 29.389
42.1600 29.376
42.1800 29.962
42.2000 30.052
42.2200 29.646
42.2400 29.392
42.2600 30.379
42.2800 30.088
42.3000 30.056
42.3200 29.931
42.3400 29.775
42.3600 29.366
42.3800 30.096
42.4000 30.339
42.4200 31.664
42.4400 31.516
42.4600 32.273
42.4800 31.303
42.5000 31.974
42.5200 32.671
42.5400 32.286
42.5600 32.351
42.5800 32.219
42.6000 31.852
42.6200 31.963
42.6400 31.235
42.6600 31.259
42.6800 30.716
42.7000 30.438
42.7200 30.015
42.7400 29.997
42.7600 30.416
42.7800 31.036
42.8000 30.332
42.8200 29.979
42.8400 30.429
42.8600 29.633
42.8800 30.328
42.9000 29.182
42.9200 30.147
42.9400 30.186
42.9600 29.356
42.9800 29.865
43.0000 30.979
43.0200 30.502
43.0400 30.157
43.0600 30.016
43.0800 29.416
43.1000 30.129
43.1200 29.577
43.1400 30.148
43.1600 29.425
43.1800 29.280
43.2000 30.639
43.2200 30.697
43.2400 30.179
43.2600 29.883
43.2800 29.768
43.3000 31.061
43.3200 30.282
43.3400 30.937
43.3600 30.052
43.3800 30.200
43.4000 29.314
43.4200 30.477
43.4400 30.028
43.4600 30.249
43.4800 30.770
43.5000 30.260
43.5200 31.055
43.5400 31.121
43.5600 31.433
43.5800 31.517
43.6000 30.878
43.6200 31.071
43.6400 30.780
43.6600 31.154
43.6800 31.462
43.7000 31.388
43.7200 31.725
43.7400 31.120
43.7600 31.320
43.7800 31.970
43.8000 32.032
43.8200 30.977
43.8400 32.214
43.8600 32.512
43.8800 32.636
43.9000 31.921
43.9200 32.980
43.9400 34.583
43.9600 33.955
43.9800 35.431
44.0000 37.700
44.0200 39.987
44.0400 45.034
44.0600 50.570
44.0800 55.364
44.1000 57.565
44.1200 60.634
44.1400 59.595
44.1600 56.261
44.1800 54.630
44.2000 52.307
44.2200 50.530
44.2400 48.175
44.2600 46.368
44.2800 43.460
44.3000 40.026
44.3200 37.290
44.3400 36.246
44.3600 34.545
44.3800 32.841
44.4000 33.234
44.4200 32.778
44.4400 31.854
44.4600 32.822
44.4800 32.566
44.5000 31.849
44.5200 32.196
44.5400 32.295
44.5600 32.267
44.5800 31.070
44.6000 31.975
44.6200 31.502
44.6400 31.549
44.6600 32.930
44.6800 33.207
44.7000 33.791
44.7200 34.142
44.7400 36.024
44.7600 39.766
44.7800 42.633
44.8000 42.063
44.8200 40.166
44.8400 40.613
44.8600 41.661
44.8800 42.176
44.9000 43.942
44.9200 42.522
44.9400 42.196
44.9600 41.201
44.9800 41.565
45.0000 42.539
45.0200 40.930
45.0400 41.324
45.0600 41.607
45.0800 40.581
45.1000 41.261
45.1200 41.985
45.1400 40.589
45.1600 39.877
45.1800 39.503
45.2000 39.620
45.2200 38.921
45.2400 38.080
45.2600 38.315
45.2800 37.119
45.3000 35.391
45.3200 35.280
45.3400 35.315
45.3600 35.173
45.3800 35.556
45.4000 33.486
45.4200 34.181
45.4400 33.616
45.4600 33.017
45.4800 31.986
45.5000 32.470
45.5200 32.321
45.5400 32.233
45.5600 32.200
45.5800 30.892
45.6000 31.542
45.6200 31.903
45.6400 31.753
45.6600 31.518
45.6800 30.790
45.7000 31.520
45.7200 32.534
45.7400 31.691
45.7600 31.276
45.7800 31.420
45.8000 31.956
45.8200 31.889
45.8400 31.219
45.8600 31.607
45.8800 32.265
45.9000 31.586
45.9200 31.944
45.9400 31.392
45.9600 32.158
45.9800 32.076
46.0000 31.806
46.0200 31.788
46.0400 31.701
46.0600 32.524
46.0800 31.491
46.1000 31.449
46.1200 32.725
46.1400 31.697
46.1600 32.094
46.1800 31.735
46.2000 32.235
46.2200 32.682
46.2400 31.839
46.2600 32.414
46.2800 33.147
46.3000 32.193
46.3200 31.626
46.3400 31.321
46.3600 32.426
46.3800 32.420
46.4000 32.074
46.4200 32.420
46.4400 31.874
46.4600 31.097
46.4800 31.425
46.5000 32.196
46.5200 32.630
46.5400 32.315
46.5600 32.657
46.5800 33.166
46.6000 32.239
46.6200 32.587
46.6400 33.045
46.6600 32.660
46.6800 32.636
46.7000 32.286
