'Id: "" Comment: "" Operator: "Lab Manager" Anode: "Cu" Scantype: "Coupled TwoTheta/Theta" TimePerStep: "113.4653" X: "9999" Y: "9999" Z: "-2.700037" 
20.0000 10.140
20.0200 10.189
20.0400 9.919
20.0600 9.584
20.0800 10.069
20.1000 10.344
20.1200 10.187
20.1400 9.999
20.1600 10.077
20.1800 9.813
20.2000 10.315
20.2200 10.005
20.2400 9.885
20.2600 10.302
20.2800 10.419
20.3000 10.867
20.3200 10.834
20.3400 10.206
20.3600 10.170
20.3800 11.033
20.4000 10.340
20.4200 10.394
20.4400 10.440
20.4600 10.168
20.4800 10.303
20.5000 10.478
20.5200 10.209
20.5400 10.472
20.5600 10.428
20.5800 10.221
20.6000 11.047
20.6200 10.970
20.6400 10.867
20.6600 10.286
20.6800 10.125
20.7000 10.676
20.7200 10.492
20.7400 10.413
20.7600 10.141
20.7800 10.409
20.8000 10.764
20.8200 10.466
20.8400 10.038
20.8600 9.925
20.8800 10.343
20.9000 10.492
20.9200 10.632
20.9400 10.763
20.9600 10.538
20.9800 10.717
21.0000 10.625
21.0200 10.076
21.0400 10.297
21.0600 10.745
21.0800 10.628
21.1000 10.887
21.1200 10.523
21.1400 10.982
21.1600 11.038
21.1800 10.604
21.2000 10.716
21.2200 10.927
21.2400 10.945
21.2600 10.999
21.2800 10.514
21.3000 10.634
21.3200 10.636
21.3400 10.953
21.3600 10.918
21.3800 10.811
21.4000 10.942
21.4200 11.374
21.4400 11.021
21.4600 11.076
21.4800 11.377
21.5000 11.078
21.5200 10.982
21.5400 11.028
21.5600 11.339
21.5800 11.175
21.6000 11.075
21.6200 10.860
21.6400 11.461
21.6600 11.241
21.6800 11.196
21.7000 11.078
21.7200 11.166
21.7400 11.183
21.7600 10.944
21.7800 10.888
21.8000 11.564
21.8200 11.113
21.8400 10.635
21.8600 10.953
21.8800 11.234
21.9000 11.549
21.9200 11.045
21.9400 11.162
21.9600 11.075
21.9800 11.541
22.0000 11.443
22.0200 11.372
22.0400 11.400
22.0600 11.477
22.0800 11.151
22.1000 11.053
22.1200 11.290
22.1400 11.814
22.1600 11.798
22.1800 11.406
22.2000 11.844
22.2200 11.483
22.2400 11.586
22.2600 11.936
22.2800 11.964
22.3000 11.469
22.3200 11.287
22.3400 11.140
22.3600 11.198
22.3800 11.438
22.4000 11.617
22.4200 12.068
22.4400 12.106
22.4600 12.020
22.4800 11.875
22.5000 11.349
22.5200 11.638
22.5400 11.383
22.5600 11.927
22.5800 12.239
22.6000 11.487
22.6200 11.677
22.6400 11.668
22.6600 11.596
22.6800 11.723
22.7000 11.606
22.7200 11.938
22.7400 12.144
22.7600 11.729
22.7800 11.636
22.8000 11.873
22.8200 12.317
22.8400 12.279
22.8600 12.471
22.8800 12.071
22.9000 12.079
22.9200 12.405
22.9400 12.265
22.9600 11.785
22.9800 12.142
23.0000 12.002
23.0200 11.531
23.0400 12.007
23.0600 11.680
23.0800 11.959
23.1000 11.966
23.1200 12.061
23.1400 11.681
23.1600 12.550
23.1800 12.419
23.2000 11.983
23.2200 12.246
23.2400 12.632
23.2600 12.659
23.2800 11.955
23.3000 12.505
23.3200 12.072
23.3400 12.354
23.3600 12.041
23.3800 12.376
23.4000 12.742
23.4200 12.470
23.4400 11.809
23.4600 11.787
23.4800 12.024
23.5000 12.330
23.5200 12.883
23.5400 12.465
23.5600 12.131
23.5800 12.030
23.6000 11.998
23.6200 12.576
23.6400 13.018
23.6600 12.295
23.6800 12.054
23.7000 12.142
23.7200 12.671
23.7400 12.222
23.7600 12.566
23.7800 12.604
23.8000 11.851
23.8200 12.391
23.8400 12.585
23.8600 12.722
23.8800 12.530
23.9000 12.788
23.9200 12.882
23.9400 12.363
23.9600 13.178
23.9800 12.749
24.0000 12.706
24.0200 12.772
24.0400 12.591
24.0600 12.966
24.0800 12.760
24.1000 12.938
24.1200 13.145
24.1400 13.285
24.1600 12.837
24.1800 12.662
24.2000 13.414
24.2200 13.414
24.2400 12.754
24.2600 12.761
24.2800 12.677
24.3000 12.835
24.3200 13.171
24.3400 12.384
24.3600 13.084
24.3800 12.546
24.4000 13.006
24.4200 14.100
24.4400 13.213
24.4600 13.080
24.4800 12.874
24.5000 13.376
24.5200 13.054
24.5400 13.052
24.5600 13.171
24.5800 12.921
24.6000 13.192
24.6200 13.256
24.6400 13.400
24.6600 13.196
24.6800 13.169
24.7000 13.029
24.7200 13.546
24.7400 12.752
24.7600 12.967
24.7800 12.835
24.8000 13.767
24.8200 13.380
24.8400 13.179
24.8600 13.593
24.8800 13.620
24.9000 13.355
24.9200 13.275
24.9400 13.477
24.9600 13.942
24.9800 14.029
25.0000 13.387
25.0200 13.521
25.0400 13.405
25.0600 13.541
25.0800 13.040
25.1000 13.158
25.1200 13.647
25.1400 13.451
25.1600 14.229
25.1800 14.485
25.2000 13.365
25.2200 14.174
25.2400 14.467
25.2600 13.901
25.2800 14.134
25.3000 14.292
25.3200 13.505
25.3400 13.832
25.3600 13.310
25.3800 13.740
25.4000 14.459
25.4200 13.906
25.4400 13.821
25.4600 13.749
25.4800 13.978
25.5000 13.969
25.5200 13.944
25.5400 14.324
25.5600 14.021
25.5800 13.729
25.6000 13.639
25.6200 14.241
25.6400 13.521
25.6600 14.245
25.6800 13.928
25.7000 13.592
25.7200 13.961
25.7400 13.681
25.7600 13.835
25.7800 13.781
25.8000 13.974
25.8200 14.447
25.8400 14.084
25.8600 14.085
25.8800 14.314
25.9000 14.464
25.9200 14.374
25.9400 14.481
25.9600 14.652
25.9800 14.255
26.0000 13.793
26.0200 14.324
26.0400 14.529
26.0600 13.969
26.0800 14.230
26.1000 14.354
26.1200 13.916
26.1400 14.681
26.1600 15.368
26.1800 14.710
26.2000 14.458
26.2200 15.011
26.2400 14.722
26.2600 14.725
26.2800 14.102
26.3000 14.287
26.3200 14.312
26.3400 14.967
26.3600 14.566
26.3800 14.101
26.4000 14.964
26.4200 14.891
26.4400 14.378
26.4600 14.731
26.4800 15.013
26.5000 14.656
26.5200 14.767
26.5400 15.063
26.5600 14.486
26.5800 14.740
26.6000 15.079
26.6200 14.377
26.6400 14.171
26.6600 14.782
26.6800 14.848
26.7000 15.083
26.7200 14.840
26.7400 15.132
26.7600 14.591
26.7800 14.921
26.8000 15.324
26.8200 15.114
26.8400 15.447
26.8600 15.336
26.8800 14.886
26.9000 15.121
26.9200 15.597
26.9400 15.947
26.9600 15.609
26.9800 15.272
27.0000 15.091
27.0200 14.641
27.0400 14.906
27.0600 15.380
27.0800 15.187
27.1000 15.925
27.1200 15.177
27.1400 15.417
27.1600 15.033
27.1800 15.191
27.2000 15.342
27.2200 15.609
27.2400 15.307
27.2600 14.617
27.2800 15.290
27.3000 15.266
27.3200 15.936
27.3400 15.766
27.3600 15.444
27.3800 15.606
27.4000 15.523
27.4200 16.254
27.4400 14.681
27.4600 15.304
27.4800 15.694
27.5000 16.213
27.5200 15.864
27.5400 16.197
27.5600 15.757
27.5800 15.825
27.6000 15.677
27.6200 15.578
27.6400 15.553
27.6600 16.186
27.6800 15.437
27.7000 15.560
27.7200 15.565
27.7400 15.500
27.7600 15.505
27.7800 15.401
27.8000 16.254
27.8200 16.478
27.8400 16.176
27.8600 15.986
27.8800 15.469
27.9000 15.898
27.9200 15.895
27.9400 15.380
27.9600 15.578
27.9800 16.244
28.0000 16.124
28.0200 15.904
28.0400 15.827
28.0600 16.009
28.0800 15.816
28.1000 16.365
28.1200 16.335
28.1400 15.613
28.1600 16.197
28.1800 15.982
28.2000 15.794
28.2200 16.826
28.2400 16.622
28.2600 16.247
28.2800 15.850
28.3000 15.936
28.3200 16.367
28.3400 16.094
28.3600 16.520
28.3800 15.879
28.4000 16.574
28.4200 16.487
28.4400 16.236
28.4600 17.140
28.4800 16.858
28.5000 16.830
28.5200 17.344
28.5400 16.723
28.5600 16.547
28.5800 16.397
28.6000 16.158
28.6200 17.101
28.6400 16.690
28.6600 17.123
28.6800 17.335
28.7000 16.158
28.7200 16.660
28.7400 16.383
28.7600 16.738
28.7800 16.835
28.8000 16.748
28.8200 16.792
28.8400 16.415
28.8600 16.344
28.8800 17.055
28.9000 17.174
28.9200 16.319
28.9400 16.507
28.9600 17.028
28.9800 17.109
29.0000 17.035
29.0200 17.300
29.0400 17.186
29.0600 17.191
29.0800 16.281
29.1000 16.273
29.1200 17.347
29.1400 16.732
29.1600 17.995
29.1800 17.507
29.2000 16.744
29.2200 16.411
29.2400 16.941
29.2600 17.540
29.2800 17.185
29.3000 16.707
29.3200 17.185
29.3400 17.162
29.3600 17.535
29.3800 17.362
29.4000 17.020
29.4200 16.917
29.4400 17.215
29.4600 16.933
29.4800 17.178
29.5000 17.519
29.5200 17.625
29.5400 17.084
29.5600 16.905
29.5800 17.376
29.6000 16.736
29.6200 16.834
29.6400 17.936
29.6600 17.788
29.6800 17.346
29.7000 17.800
29.7200 17.517
29.7400 17.110
29.7600 17.846
29.7800 18.302
29.8000 18.314
29.8200 17.704
29.8400 17.643
29.8600 17.688
29.8800 17.984
29.9000 17.875
29.9200 17.680
29.9400 18.436
29.9600 18.394
29.9800 18.170
30.0000 17.711
30.0200 17.164
30.0400 17.773
30.0600 17.650
30.0800 17.558
30.1000 18.023
30.1200 18.363
30.1400 18.493
30.1600 17.943
30.1800 18.063
30.2000 18.018
30.2200 17.937
30.2400 18.049
30.2600 18.625
30.2800 17.912
30.3000 18.489
30.3200 18.179
30.3400 18.224
30.3600 17.898
30.3800 17.496
30.4000 18.193
30.4200 18.136
30.4400 17.814
30.4600 19.097
30.4800 18.837
30.5000 19.073
30.5200 18.752
30.5400 18.674
30.5600 18.937
30.5800 18.645
30.6000 18.963
30.6200 18.405
30.6400 18.619
30.6600 19.009
30.6800 18.710
30.7000 18.910
30.7200 18.917
30.7400 18.137
30.7600 19.462
30.7800 18.617
30.8000 18.897
30.8200 19.062
30.8400 19.288
30.8600 18.940
30.8800 19.095
30.9000 19.047
30.9200 19.019
30.9400 18.899
30.9600 18.444
30.9800 18.525
31.0000 19.104
31.0200 18.962
31.0400 19.151
31.0600 19.212
31.0800 19.293
31.1000 18.986
31.1200 18.588
31.1400 18.264
31.1600 19.174
31.1800 19.185
31.2000 19.630
31.2200 19.153
31.2400 19.027
31.2600 19.097
31.2800 19.825
31.3000 19.530
31.3200 19.212
31.3400 19.012
31.3600 19.022
31.3800 19.225
31.4000 19.711
31.4200 19.166
31.4400 19.577
31.4600 19.457
31.4800 19.534
31.5000 20.111
31.5200 19.407
31.5400 19.625
31.5600 19.831
31.5800 19.777
31.6000 19.429
31.6200 19.059
31.6400 19.362
31.6600 19.505
31.6800 19.791
31.7000 18.836
31.7200 19.610
31.7400 19.880
31.7600 20.537
31.7800 19.620
31.8000 19.428
31.8200 19.413
31.8400 19.925
31.8600 19.804
31.8800 19.614
31.9000 19.518
31.9200 19.911
31.9400 20.117
31.9600 20.150
31.9800 20.066
32.0000 20.212
32.0200 20.224
32.0400 20.670
32.0600 20.551
32.0800 20.359
32.1000 19.578
32.1200 19.778
32.1400 20.394
32.1600 19.968
32.1800 20.366
32.2000 20.410
32.2200 20.554
32.2400 20.976
32.2600 20.265
32.2800 20.497
32.3000 21.747
32.3200 20.773
32.3400 20.644
32.3600 20.941
32.3800 20.718
32.4000 20.607
32.4200 19.971
32.4400 19.513
32.4600 20.264
32.4800 19.814
32.5000 20.478
32.5200 20.163
32.5400 20.632
32.5600 20.903
32.5800 20.039
32.6000 20.438
32.6200 19.881
32.6400 20.729
32.6600 20.587
32.6800 21.109
32.7000 20.590
32.7200 20.866
32.7400 20.359
32.7600 20.721
32.7800 21.370
32.8000 21.172
32.8200 20.972
32.8400 21.775
32.8600 21.031
32.8800 20.587
32.9000 21.618
32.9200 21.053
32.9400 21.135
32.9600 21.420
32.9800 21.255
33.0000 21.143
33.0200 21.172
33.0400 21.745
33.0600 21.504
33.0800 21.458
33.1000 21.293
33.1200 20.832
33.1400 20.797
33.1600 21.401
33.1800 22.108
33.2000 21.466
33.2200 22.068
33.2400 21.439
33.2600 20.240
33.2800 20.703
33.3000 21.456
33.3200 21.983
33.3400 21.792
33.3600 21.067
33.3800 21.729
33.4000 21.265
33.4200 21.776
33.4400 21.465
33.4600 21.486
33.4800 21.668
33.5000 21.665
33.5200 21.865
33.5400 21.896
33.5600 21.771
33.5800 21.826
33.6000 21.674
33.6200 22.232
33.6400 22.106
33.6600 21.326
33.6800 21.675
33.7000 22.226
33.7200 21.881
33.7400 21.509
33.7600 22.407
33.7800 21.974
33.8000 21.495
33.8200 21.789
33.8400 21.900
33.8600 21.948
33.8800 22.600
33.9000 22.101
33.9200 22.225
33.9400 22.130
33.9600 21.907
33.9800 22.708
34.0000 22.255
34.0200 22.227
34.0400 22.686
34.0600 22.771
34.0800 23.073
34.1000 22.490
34.1200 22.166
34.1400 22.084
34.1600 22.288
34.1800 22.973
34.2000 22.762
34.2200 22.977
34.2400 22.753
34.2600 22.651
34.2800 22.778
34.3000 22.565
34.3200 22.073
34.3400 22.501
34.3600 22.122
34.3800 22.529
34.4000 23.433
34.4200 23.697
34.4400 23.175
34.4600 22.328
34.4800 22.819
34.5000 22.790
34.5200 23.006
34.5400 23.290
34.5600 22.753
34.5800 23.249
34.6000 22.907
34.6200 22.912
34.6400 22.644
34.6600 22.895
34.6800 23.893
34.7000 23.535
34.7200 23.230
34.7400 23.023
34.7600 22.539
34.7800 22.295
34.8000 23.134
34.8200 24.063
34.8400 23.082
34.8600 23.025
34.8800 23.198
34.9000 23.125
34.9200 23.072
34.9400 23.727
34.9600 23.645
34.9800 23.302
35.0000 23.320
35.0200 22.685
35.0400 22.912
35.0600 23.935
35.0800 23.257
35.1000 23.092
35.1200 23.301
35.1400 23.321
35.1600 23.731
35.1800 23.289
35.2000 23.433
35.2200 23.343
35.2400 23.602
35.2600 23.398
35.2800 23.860
35.3000 23.357
35.3200 23.566
35.3400 24.177
35.3600 23.513
35.3800 23.752
35.4000 23.667
35.4200 24.079
35.4400 23.367
35.4600 23.826
35.4800 24.693
35.5000 23.739
35.5200 23.777
35.5400 24.632
35.5600 24.526
35.5800 23.578
35.6000 24.035
35.6200 24.373
35.6400 24.386
35.6600 23.875
35.6800 23.987
35.7000 23.817
35.7200 23.220
35.7400 23.597
35.7600 24.241
35.7800 24.773
35.8000 23.489
35.8200 24.956
35.8400 24.931
35.8600 24.618
35.8800 24.626
35.9000 24.520
35.9200 24.558
35.9400 24.675
35.9600 24.389
35.9800 24.199
36.0000 24.652
36.0200 24.670
36.0400 25.061
36.0600 24.478
36.0800 24.189
36.1000 24.137
36.1200 24.509
36.1400 24.882
36.1600 24.596
36.1800 25.076
36.2000 25.127
36.2200 25.009
36.2400 24.528
36.2600 24.644
36.2800 25.037
36.3000 25.029
36.3200 24.638
36.3400 24.886
36.3600 24.609
36.3800 24.547
36.4000 24.901
36.4200 24.911
36.4400 24.814
36.4600 25.453
36.4800 25.393
36.5000 24.734
36.5200 25.439
36.5400 25.023
36.5600 25.413
36.5800 26.032
36.6000 25.556
36.6200 25.057
36.6400 25.147
36.6600 25.742
36.6800 25.830
36.7000 25.567
36.7200 25.171
36.7400 26.355
36.7600 25.705
36.7800 26.369
36.8000 26.633
36.8200 26.120
36.8400 25.918
36.8600 26.248
36.8800 26.050
36.9000 26.030
36.9200 25.959
36.9400 26.013
36.9600 26.197
36.9800 26.188
37.0000 25.815
37.0200 26.524
37.0400 26.499
37.0600 25.904
37.0800 26.285
37.1000 26.145
37.1200 26.402
37.1400 25.946
37.1600 25.465
37.1800 26.098
37.2000 26.682
37.2200 26.976
37.2400 27.568
37.2600 27.112
37.2800 26.783
37.3000 26.994
37.3200 27.250
37.3400 26.671
37.3600 27.107
37.3800 26.922
37.4000 28.185
37.4200 26.810
37.4400 26.692
37.4600 27.518
37.4800 27.337
37.5000 27.122
37.5200 27.821
37.5400 26.927
37.5600 27.407
37.5800 27.127
37.6000 27.179
37.6200 27.359
37.6400 27.807
37.6600 27.424
37.6800 27.460
37.7000 27.687
37.7200 27.904
37.7400 27.855
37.7600 28.224
37.7800 27.203
37.8000 26.638
37.8200 27.509
37.8400 26.920
37.8600 27.686
37.8800 27.521
37.9000 28.393
37.9200 28.249
37.9400 27.725
37.9600 28.488
37.9800 27.982
38.0000 27.025
38.0200 28.398
38.0400 27.758
38.0600 27.928
38.0800 27.769
38.1000 27.857
38.1200 28.752
38.1400 28.770
38.1600 28.548
38.1800 28.704
38.2000 28.913
38.2200 28.792
38.2400 29.038
38.2600 28.576
38.2800 29.072
38.3000 28.458
38.3200 27.992
38.3400 28.440
38.3600 28.651
38.3800 28.443
38.4000 28.975
38.4200 28.945
38.4400 28.230
38.4600 28.644
38.4800 28.603
38.5000 28.910
38.5200 28.644
38.5400 28.686
38.5600 28.750
38.5800 29.061
38.6000 29.468
38.6200 28.931
38.6400 29.410
38.6600 29.258
38.6800 28.402
38.7000 28.691
38.7200 28.726
38.7400 29.305
38.7600 29.002
38.7800 28.507
38.8000 28.803
38.8200 28.882
38.8400 29.514
38.8600 29.414
38.8800 29.286
38.9000 30.003
38.9200 30.163
38.9400 29.620
38.9600 29.745
38.9800 29.006
39.0000 29.126
39.0200 30.294
39.0400 29.060
39.0600 29.374
39.0800 29.138
39.1000 29.467
39.1200 29.549
39.1400 29.477
39.1600 29.390
39.1800 29.703
39.2000 29.135
39.2200 29.038
39.2400 30.444
39.2600 30.485
39.2800 30.119
39.3000 30.256
39.3200 29.842
39.3400 29.859
39.3600 29.468
39.3800 29.255
39.4000 29.846
39.4200 29.988
39.4400 30.394
39.4600 29.874
39.4800 30.455
39.5000 30.638
39.5200 29.708
39.5400 30.312
39.5600 30.731
39.5800 29.972
39.6000 30.875
39.6200 30.252
39.6400 30.767
39.6600 30.622
39.6800 29.940
39.7000 29.873
39.7200 29.694
39.7400 30.823
39.7600 30.438
39.7800 30.321
39.8000 30.340
39.8200 30.373
39.8400 29.804
39.8600 30.417
39.8800 30.652
39.9000 30.441
39.9200 30.693
39.9400 31.241
39.9600 30.646
39.9800 31.061
40.0000 30.246
40.0200 31.050
40.0400 31.194
40.0600 31.035
40.0800 31.808
40.1000 31.414
40.1200 30.618
40.1400 30.281
40.1600 31.561
40.1800 30.784
40.2000 31.051
40.2200 31.131
40.2400 30.361
40.2600 31.475
40.2800 29.848
40.3000 30.824
40.3200 30.758
40.3400 31.224
40.3600 31.298
40.3800 30.724
40.4000 31.592
40.4200 31.677
40.4400 30.703
40.4600 31.287
40.4800 31.930
40.5000 30.905
40.5200 30.820
40.5400 32.081
40.5600 31.228
40.5800 31.188
40.6000 31.930
40.6200 31.239
40.6400 30.931
40.6600 31.068
40.6800 32.420
40.7000 31.249
40.7200 31.409
40.7400 31.775
40.7600 31.302
40.7800 31.334
40.8000 31.063
40.8200 31.261
40.8400 31.718
40.8600 31.946
40.8800 30.913
40.9000 31.151
40.9200 32.143
40.9400 31.767
40.9600 31.734
40.9800 32.015
41.0000 31.620
41.0200 31.803
41.0400 32.160
41.0600 31.772
41.0800 31.175
41.1000 31.492
41.1200 31.268
41.1400 31.828
41.1600 32.705
41.1800 31.758
41.2000 31.580
41.2200 31.887
41.2400 32.269
41.2600 31.986
41.2800 31.317
41.3000 31.549
41.3200 32.457
41.3400 31.923
41.3600 32.521
41.3800 31.774
41.4000 31.791
41.4200 32.230
41.4400 31.755
41.4600 32.278
41.4800 32.146
41.5000 32.527
41.5200 31.752
41.5400 32.892
41.5600 32.578
41.5800 31.632
41.6000 32.989
41.6200 32.075
41.6400 31.395
41.6600 32.070
41.6800 32.057
41.7000 32.900
41.7200 32.776
41.7400 32.748
41.7600 32.529
41.7800 31.643
41.8000 32.956
41.8200 33.015
41.8400 33.029
41.8600 32.616
41.8800 31.753
41.9000 32.239
41.9200 32.664
41.9400 32.240
41.9600 32.833
41.9800 33.253
42.0000 33.717
42.0200 32.193
42.0400 32.705
42.0600 32.347
42.0800 31.840
42.1000 32.452
42.1200 32.234
42.1400 33.468
42.1600 33.727
42.1800 32.538
42.2000 33.473
42.2200 33.817
42.2400 32.808
42.2600 33.626
42.2800 33.494
42.3000 32.826
42.3200 33.153
42.3400 33.024
42.3600 32.763
42.3800 33.209
42.4000 32.566
42.4200 32.776
42.4400 33.125
42.4600 33.289
42.4800 33.158
42.5000 33.313
42.5200 32.223
42.5400 33.422
42.5600 32.782
42.5800 32.880
42.6000 33.043
42.6200 33.647
42.6400 32.450
42.6600 33.211
42.6800 32.699
42.7000 34.658
42.7200 33.496
42.7400 33.534
42.7600 33.391
42.7800 32.921
42.8000 34.398
42.8200 33.452
42.8400 32.980
42.8600 33.777
42.8800 33.723
42.9000 34.164
42.9200 33.584
42.9400 33.381
42.9600 33.442
42.9800 33.549
43.0000 33.774
43.0200 33.553
43.0400 33.412
43.0600 32.791
43.0800 33.627
43.1000 33.889
43.1200 33.955
43.1400 33.430
43.1600 33.619
43.1800 33.719
43.2000 33.655
43.2200 34.038
43.2400 33.246
43.2600 33.578
43.2800 33.618
43.3000 32.654
43.3200 34.223
43.3400 33.019
43.3600 34.576
43.3800 33.677
43.4000 33.659
43.4200 33.301
43.4400 33.672
43.4600 33.777
43.4800 33.715
43.5000 33.795
43.5200 33.525
43.5400 34.249
43.5600 33.951
43.5800 33.441
43.6000 33.535
43.6200 35.081
43.6400 34.595
43.6600 33.583
43.6800 34.264
43.7000 34.466
43.7200 34.655
43.7400 34.505
43.7600 34.634
43.7800 34.187
43.8000 33.749
43.8200 34.591
43.8400 34.788
43.8600 34.335
43.8800 34.026
43.9000 34.335
43.9200 33.955
43.9400 34.240
43.9600 34.122
43.9800 34.576
44.0000 35.044
44.0200 35.172
44.0400 35.381
44.0600 35.544
44.0800 34.879
44.1000 35.768
44.1200 36.293
44.1400 36.191
44.1600 36.792
44.1800 36.582
44.2000 37.145
44.2200 37.775
44.2400 38.608
44.2600 38.837
44.2800 38.703
44.3000 39.619
44.3200 40.491
44.3400 42.733
44.3600 44.193
44.3800 45.659
44.4000 48.407
44.4200 50.879
44.4400 53.044
44.4600 56.550
44.4800 60.085
44.5000 63.655
44.5200 68.523
44.5400 70.229
44.5600 70.190
44.5800 69.060
44.6000 67.958
44.6200 66.522
44.6400 63.306
44.6600 60.657
44.6800 58.102
44.7000 55.520
44.7200 52.578
44.7400 49.348
44.7600 46.547
44.7800 44.242
44.8000 42.037
44.8200 41.471
44.8400 41.370
44.8600 39.113
44.8800 38.812
44.9000 38.839
44.9200 37.784
44.9400 36.892
44.9600 36.506
44.9800 36.634
45.0000 36.025
45.0200 35.691
45.0400 36.475
45.0600 36.239
45.0800 35.690
45.1000 35.847
45.1200 36.183
45.1400 34.968
45.1600 35.814
45.1800 35.811
45.2000 36.224
45.2200 35.981
45.2400 36.852
45.2600 36.211
45.2800 36.329
45.3000 35.249
45.3200 35.188
45.3400 35.132
45.3600 35.712
45.3800 36.173
45.4000 35.109
45.4200 34.977
45.4400 35.773
45.4600 35.429
45.4800 35.112
45.5000 36.225
45.5200 35.816
45.5400 35.931
45.5600 35.062
45.5800 34.005
45.6000 34.383
45.6200 36.323
45.6400 35.009
45.6600 34.955
45.6800 33.800
45.7000 34.617
45.7200 35.398
45.7400 35.415
45.7600 34.286
45.7800 35.188
45.8000 36.054
45.8200 35.108
45.8400 35.040
45.8600 35.787
45.8800 35.566
45.9000 35.531
45.9200 34.886
45.9400 35.382
45.9600 35.306
45.9800 34.756
46.0000 36.219
46.0200 35.771
46.0400 34.819
46.0600 35.805
46.0800 36.585
46.1000 35.678
46.1200 35.074
46.1400 35.398
46.1600 36.272
46.1800 35.448
46.2000 36.453
46.2200 35.823
46.2400 35.204
46.2600 36.024
46.2800 35.344
46.3000 36.008
46.3200 36.146
46.3400 35.966
46.3600 35.328
46.3800 34.665
46.4000 35.818
46.4200 35.085
46.4400 36.044
